file name:  S2128_09_1_2_MPa_PXF440_220809_197.mat	date/time  02.09.22 11.38
sensor type:  s2128_09_1_2_mpa_pxf440_220809 
force time integral[N*s]:       540.395
pressure time integral [kPa*s]:      555.150
total time [secs]:  12.700	time per frame [secs]:  0.01000	scanning rate [Hz]:   100


time[secs]    	force[N]   	x[mm]     	y[mm] 	

     0.01000	    0.000	  0.00	  0.00	
     0.02000	    0.000	  0.00	  0.00	
     0.03000	    0.000	  0.00	  0.00	
     0.04000	    0.000	  0.00	  0.00	
     0.05000	    0.000	  0.00	  0.00	
     0.06000	    0.000	  0.00	  0.00	
     0.07000	    0.000	  0.00	  0.00	
     0.08000	    0.000	  0.00	  0.00	
     0.09000	    0.000	  0.00	  0.00	
     0.10000	    0.000	  0.00	  0.00	
     0.11000	    0.000	  0.00	  0.00	
     0.12000	    0.000	  0.00	  0.00	
     0.13000	    0.000	  0.00	  0.00	
     0.14000	    0.000	  0.00	  0.00	
     0.15000	    0.000	  0.00	  0.00	
     0.16000	    0.000	  0.00	  0.00	
     0.17000	    0.000	  0.00	  0.00	
     0.18000	    0.000	  0.00	  0.00	
     0.19000	    0.000	  0.00	  0.00	
     0.20000	    0.000	  0.00	  0.00	
     0.21000	    0.000	  0.00	  0.00	
     0.22000	    0.000	  0.00	  0.00	
     0.23000	    0.000	  0.00	  0.00	
     0.24000	    0.000	  0.00	  0.00	
     0.25000	    0.000	  0.00	  0.00	
     0.26000	    0.000	  0.00	  0.00	
     0.27000	    0.000	  0.00	  0.00	
     0.28000	    0.000	  0.00	  0.00	
     0.29000	    0.000	  0.00	  0.00	
     0.30000	    0.000	  0.00	  0.00	
     0.31000	    0.000	  0.00	  0.00	
     0.32000	    0.000	  0.00	  0.00	
     0.33000	    0.000	  0.00	  0.00	
     0.34000	    0.000	  0.00	  0.00	
     0.35000	    0.000	  0.00	  0.00	
     0.36000	    0.000	  0.00	  0.00	
     0.37000	    0.000	  0.00	  0.00	
     0.38000	    0.000	  0.00	  0.00	
     0.39000	    0.000	  0.00	  0.00	
     0.40000	    0.000	  0.00	  0.00	
     0.41000	    0.000	  0.00	  0.00	
     0.42000	    0.000	  0.00	  0.00	
     0.43000	    0.000	  0.00	  0.00	
     0.44000	    0.000	  0.00	  0.00	
     0.45000	    0.000	  0.00	  0.00	
     0.46000	    0.000	  0.00	  0.00	
     0.47000	    0.000	  0.00	  0.00	
     0.48000	    0.000	  0.00	  0.00	
     0.49000	    0.000	  0.00	  0.00	
     0.50000	    0.000	  0.00	  0.00	
     0.51000	    0.000	  0.00	  0.00	
     0.52000	    0.000	  0.00	  0.00	
     0.53000	    0.000	  0.00	  0.00	
     0.54000	    0.000	  0.00	  0.00	
     0.55000	    0.000	  0.00	  0.00	
     0.56000	    0.000	  0.00	  0.00	
     0.57000	    0.000	  0.00	  0.00	
     0.58000	    0.000	  0.00	  0.00	
     0.59000	    0.000	  0.00	  0.00	
     0.60000	    0.000	  0.00	  0.00	
     0.61000	    0.000	  0.00	  0.00	
     0.62000	    0.000	  0.00	  0.00	
     0.63000	    0.000	  0.00	  0.00	
     0.64000	    0.000	  0.00	  0.00	
     0.65000	    0.000	  0.00	  0.00	
     0.66000	    0.000	  0.00	  0.00	
     0.67000	    0.000	  0.00	  0.00	
     0.68000	    0.000	  0.00	  0.00	
     0.69000	    0.000	  0.00	  0.00	
     0.70000	    0.000	  0.00	  0.00	
     0.71000	    0.000	  0.00	  0.00	
     0.72000	    0.000	  0.00	  0.00	
     0.73000	    0.000	  0.00	  0.00	
     0.74000	    0.000	  0.00	  0.00	
     0.75000	    0.000	  0.00	  0.00	
     0.76000	    0.000	  0.00	  0.00	
     0.77000	    0.000	  0.00	  0.00	
     0.78000	    0.000	  0.00	  0.00	
     0.79000	    0.000	  0.00	  0.00	
     0.80000	    0.000	  0.00	  0.00	
     0.81000	    0.000	  0.00	  0.00	
     0.82000	    0.000	  0.00	  0.00	
     0.83000	    0.000	  0.00	  0.00	
     0.84000	    0.000	  0.00	  0.00	
     0.85000	    0.000	  0.00	  0.00	
     0.86000	    0.000	  0.00	  0.00	
     0.87000	    0.000	  0.00	  0.00	
     0.88000	    0.000	  0.00	  0.00	
     0.89000	    0.000	  0.00	  0.00	
     0.90000	    0.000	  0.00	  0.00	
     0.91000	    0.000	  0.00	  0.00	
     0.92000	    0.000	  0.00	  0.00	
     0.93000	    0.000	  0.00	  0.00	
     0.94000	    0.000	  0.00	  0.00	
     0.95000	    0.000	  0.00	  0.00	
     0.96000	    0.000	  0.00	  0.00	
     0.97000	    0.000	  0.00	  0.00	
     0.98000	    0.000	  0.00	  0.00	
     0.99000	    0.000	  0.00	  0.00	
     1.00000	    0.000	  0.00	  0.00	
     1.01000	    0.000	  0.00	  0.00	
     1.02000	    0.000	  0.00	  0.00	
     1.03000	    0.000	  0.00	  0.00	
     1.04000	    0.000	  0.00	  0.00	
     1.05000	    0.000	  0.00	  0.00	
     1.06000	    0.000	  0.00	  0.00	
     1.07000	    0.000	  0.00	  0.00	
     1.08000	    0.000	  0.00	  0.00	
     1.09000	    0.000	  0.00	  0.00	
     1.10000	    0.000	  0.00	  0.00	
     1.11000	    0.000	  0.00	  0.00	
     1.12000	    0.000	  0.00	  0.00	
     1.13000	    0.000	  0.00	  0.00	
     1.14000	    0.000	  0.00	  0.00	
     1.15000	    0.000	  0.00	  0.00	
     1.16000	    0.000	  0.00	  0.00	
     1.17000	    0.000	  0.00	  0.00	
     1.18000	    0.000	  0.00	  0.00	
     1.19000	    0.000	  0.00	  0.00	
     1.20000	    0.000	  0.00	  0.00	
     1.21000	    0.000	  0.00	  0.00	
     1.22000	    0.000	  0.00	  0.00	
     1.23000	    0.000	  0.00	  0.00	
     1.24000	    0.000	  0.00	  0.00	
     1.25000	    0.000	  0.00	  0.00	
     1.26000	    0.000	  0.00	  0.00	
     1.27000	    0.000	  0.00	  0.00	
     1.28000	    0.000	  0.00	  0.00	
     1.29000	    0.000	  0.00	  0.00	
     1.30000	    0.000	  0.00	  0.00	
     1.31000	    0.000	  0.00	  0.00	
     1.32000	    0.000	  0.00	  0.00	
     1.33000	    0.000	  0.00	  0.00	
     1.34000	    0.000	  0.00	  0.00	
     1.35000	    0.000	  0.00	  0.00	
     1.36000	    0.000	  0.00	  0.00	
     1.37000	    0.000	  0.00	  0.00	
     1.38000	    0.000	  0.00	  0.00	
     1.39000	    0.000	  0.00	  0.00	
     1.40000	    0.000	  0.00	  0.00	
     1.41000	    0.000	  0.00	  0.00	
     1.42000	    0.000	  0.00	  0.00	
     1.43000	    0.000	  0.00	  0.00	
     1.44000	    0.000	  0.00	  0.00	
     1.45000	    0.000	  0.00	  0.00	
     1.46000	    0.000	  0.00	  0.00	
     1.47000	    0.000	  0.00	  0.00	
     1.48000	    0.000	  0.00	  0.00	
     1.49000	    0.000	  0.00	  0.00	
     1.50000	    0.000	  0.00	  0.00	
     1.51000	    0.000	  0.00	  0.00	
     1.52000	    0.000	  0.00	  0.00	
     1.53000	    0.000	  0.00	  0.00	
     1.54000	    0.000	  0.00	  0.00	
     1.55000	    0.000	  0.00	  0.00	
     1.56000	    0.000	  0.00	  0.00	
     1.57000	    0.000	  0.00	  0.00	
     1.58000	    0.000	  0.00	  0.00	
     1.59000	    0.000	  0.00	  0.00	
     1.60000	    0.000	  0.00	  0.00	
     1.61000	    0.000	  0.00	  0.00	
     1.62000	    0.000	  0.00	  0.00	
     1.63000	    0.000	  0.00	  0.00	
     1.64000	    0.000	  0.00	  0.00	
     1.65000	    0.000	  0.00	  0.00	
     1.66000	    0.000	  0.00	  0.00	
     1.67000	    0.000	  0.00	  0.00	
     1.68000	    0.000	  0.00	  0.00	
     1.69000	    0.000	  0.00	  0.00	
     1.70000	    0.000	  0.00	  0.00	
     1.71000	    0.000	  0.00	  0.00	
     1.72000	    0.000	  0.00	  0.00	
     1.73000	    0.000	  0.00	  0.00	
     1.74000	    0.000	  0.00	  0.00	
     1.75000	    0.000	  0.00	  0.00	
     1.76000	    0.000	  0.00	  0.00	
     1.77000	    0.000	  0.00	  0.00	
     1.78000	    0.000	  0.00	  0.00	
     1.79000	    0.000	  0.00	  0.00	
     1.80000	    0.000	  0.00	  0.00	
     1.81000	    0.000	  0.00	  0.00	
     1.82000	    0.000	  0.00	  0.00	
     1.83000	    0.000	  0.00	  0.00	
     1.84000	    0.000	  0.00	  0.00	
     1.85000	    0.000	  0.00	  0.00	
     1.86000	    0.000	  0.00	  0.00	
     1.87000	    0.000	  0.00	  0.00	
     1.88000	    0.000	  0.00	  0.00	
     1.89000	    0.000	  0.00	  0.00	
     1.90000	    0.000	  0.00	  0.00	
     1.91000	    0.000	  0.00	  0.00	
     1.92000	    0.000	  0.00	  0.00	
     1.93000	    0.000	  0.00	  0.00	
     1.94000	    0.000	  0.00	  0.00	
     1.95000	    0.000	  0.00	  0.00	
     1.96000	    0.000	  0.00	  0.00	
     1.97000	    0.000	  0.00	  0.00	
     1.98000	    0.000	  0.00	  0.00	
     1.99000	    0.000	  0.00	  0.00	
     2.00000	    0.000	  0.00	  0.00	
     2.01000	    0.000	  0.00	  0.00	
     2.02000	    0.000	  0.00	  0.00	
     2.03000	    0.000	  0.00	  0.00	
     2.04000	    0.000	  0.00	  0.00	
     2.05000	    0.000	  0.00	  0.00	
     2.06000	    0.000	  0.00	  0.00	
     2.07000	    0.000	  0.00	  0.00	
     2.08000	    0.000	  0.00	  0.00	
     2.09000	    0.000	  0.00	  0.00	
     2.10000	    0.000	  0.00	  0.00	
     2.11000	    0.000	  0.00	  0.00	
     2.12000	    0.000	  0.00	  0.00	
     2.13000	    0.000	  0.00	  0.00	
     2.14000	    0.000	  0.00	  0.00	
     2.15000	    0.000	  0.00	  0.00	
     2.16000	    0.000	  0.00	  0.00	
     2.17000	    0.000	  0.00	  0.00	
     2.18000	    0.000	  0.00	  0.00	
     2.19000	    0.000	  0.00	  0.00	
     2.20000	    0.000	  0.00	  0.00	
     2.21000	    0.000	  0.00	  0.00	
     2.22000	    0.000	  0.00	  0.00	
     2.23000	    0.000	  0.00	  0.00	
     2.24000	    0.000	  0.00	  0.00	
     2.25000	    0.000	  0.00	  0.00	
     2.26000	    0.000	  0.00	  0.00	
     2.27000	    0.000	  0.00	  0.00	
     2.28000	    0.000	  0.00	  0.00	
     2.29000	    0.000	  0.00	  0.00	
     2.30000	    0.000	  0.00	  0.00	
     2.31000	    0.000	  0.00	  0.00	
     2.32000	    0.000	  0.00	  0.00	
     2.33000	    0.000	  0.00	  0.00	
     2.34000	    0.000	  0.00	  0.00	
     2.35000	    0.000	  0.00	  0.00	
     2.36000	    0.000	  0.00	  0.00	
     2.37000	    0.000	  0.00	  0.00	
     2.38000	    0.000	  0.00	  0.00	
     2.39000	    0.000	  0.00	  0.00	
     2.40000	    0.000	  0.00	  0.00	
     2.41000	    0.000	  0.00	  0.00	
     2.42000	    0.000	  0.00	  0.00	
     2.43000	    0.000	  0.00	  0.00	
     2.44000	    0.000	  0.00	  0.00	
     2.45000	    0.000	  0.00	  0.00	
     2.46000	    0.000	  0.00	  0.00	
     2.47000	    0.000	  0.00	  0.00	
     2.48000	    0.000	  0.00	  0.00	
     2.49000	    0.000	  0.00	  0.00	
     2.50000	    0.000	  0.00	  0.00	
     2.51000	    0.000	  0.00	  0.00	
     2.52000	    0.000	  0.00	  0.00	
     2.53000	    0.000	  0.00	  0.00	
     2.54000	    0.000	  0.00	  0.00	
     2.55000	    0.000	  0.00	  0.00	
     2.56000	    0.000	  0.00	  0.00	
     2.57000	    0.000	  0.00	  0.00	
     2.58000	    0.000	  0.00	  0.00	
     2.59000	    0.000	  0.00	  0.00	
     2.60000	    0.000	  0.00	  0.00	
     2.61000	    0.000	  0.00	  0.00	
     2.62000	    0.000	  0.00	  0.00	
     2.63000	    0.000	  0.00	  0.00	
     2.64000	    0.000	  0.00	  0.00	
     2.65000	    0.000	  0.00	  0.00	
     2.66000	    0.000	  0.00	  0.00	
     2.67000	    0.000	  0.00	  0.00	
     2.68000	    0.000	  0.00	  0.00	
     2.69000	    0.000	  0.00	  0.00	
     2.70000	    0.000	  0.00	  0.00	
     2.71000	    0.000	  0.00	  0.00	
     2.72000	    0.000	  0.00	  0.00	
     2.73000	    0.000	  0.00	  0.00	
     2.74000	    0.000	  0.00	  0.00	
     2.75000	    0.000	  0.00	  0.00	
     2.76000	    0.000	  0.00	  0.00	
     2.77000	    0.000	  0.00	  0.00	
     2.78000	    0.000	  0.00	  0.00	
     2.79000	    0.000	  0.00	  0.00	
     2.80000	    0.000	  0.00	  0.00	
     2.81000	    0.000	  0.00	  0.00	
     2.82000	    0.000	  0.00	  0.00	
     2.83000	    0.000	  0.00	  0.00	
     2.84000	    0.000	  0.00	  0.00	
     2.85000	    0.000	  0.00	  0.00	
     2.86000	    0.000	  0.00	  0.00	
     2.87000	    0.000	  0.00	  0.00	
     2.88000	    0.000	  0.00	  0.00	
     2.89000	    0.000	  0.00	  0.00	
     2.90000	    0.000	  0.00	  0.00	
     2.91000	    0.000	  0.00	  0.00	
     2.92000	    0.000	  0.00	  0.00	
     2.93000	    0.000	  0.00	  0.00	
     2.94000	    0.000	  0.00	  0.00	
     2.95000	    0.000	  0.00	  0.00	
     2.96000	    0.000	  0.00	  0.00	
     2.97000	    0.000	  0.00	  0.00	
     2.98000	    0.000	  0.00	  0.00	
     2.99000	    0.000	  0.00	  0.00	
     3.00000	    0.000	  0.00	  0.00	
     3.01000	    0.000	  0.00	  0.00	
     3.02000	    0.000	  0.00	  0.00	
     3.03000	    0.000	  0.00	  0.00	
     3.04000	    0.000	  0.00	  0.00	
     3.05000	    0.000	  0.00	  0.00	
     3.06000	    0.000	  0.00	  0.00	
     3.07000	    0.000	  0.00	  0.00	
     3.08000	    0.000	  0.00	  0.00	
     3.09000	    0.000	  0.00	  0.00	
     3.10000	    0.000	  0.00	  0.00	
     3.11000	    0.000	  0.00	  0.00	
     3.12000	    0.000	  0.00	  0.00	
     3.13000	    0.000	  0.00	  0.00	
     3.14000	    0.000	  0.00	  0.00	
     3.15000	    0.000	  0.00	  0.00	
     3.16000	    0.000	  0.00	  0.00	
     3.17000	    0.000	  0.00	  0.00	
     3.18000	    0.000	  0.00	  0.00	
     3.19000	    0.000	  0.00	  0.00	
     3.20000	    0.000	  0.00	  0.00	
     3.21000	    0.000	  0.00	  0.00	
     3.22000	    0.000	  0.00	  0.00	
     3.23000	    0.000	  0.00	  0.00	
     3.24000	    0.000	  0.00	  0.00	
     3.25000	    0.000	  0.00	  0.00	
     3.26000	    0.000	  0.00	  0.00	
     3.27000	    0.000	  0.00	  0.00	
     3.28000	    0.000	  0.00	  0.00	
     3.29000	    0.000	  0.00	  0.00	
     3.30000	    0.000	  0.00	  0.00	
     3.31000	    0.000	  0.00	  0.00	
     3.32000	    0.000	  0.00	  0.00	
     3.33000	    0.000	  0.00	  0.00	
     3.34000	    0.000	  0.00	  0.00	
     3.35000	    0.000	  0.00	  0.00	
     3.36000	    0.000	  0.00	  0.00	
     3.37000	    0.000	  0.00	  0.00	
     3.38000	    0.000	  0.00	  0.00	
     3.39000	    2.000	 25.00	115.00	
     3.40000	    2.000	 25.00	115.00	
     3.41000	    2.000	 25.00	115.00	
     3.42000	    2.000	 25.00	115.00	
     3.43000	    2.000	 25.00	115.00	
     3.44000	    2.500	 25.00	115.00	
     3.45000	    2.500	 25.00	115.00	
     3.46000	    2.000	 25.00	115.00	
     3.47000	    2.000	 25.00	115.00	
     3.48000	    2.000	 25.00	115.00	
     3.49000	    6.000	 31.67	111.67	
     3.50000	    6.000	 31.67	111.67	
     3.51000	    4.000	 30.00	110.00	
     3.52000	    4.000	 30.00	110.00	
     3.53000	    6.000	 31.67	111.67	
     3.54000	    6.000	 31.67	111.67	
     3.55000	    4.000	 30.00	110.00	
     3.56000	    6.000	 31.67	111.67	
     3.57000	    4.000	 30.00	110.00	
     3.58000	    6.000	 31.67	111.67	
     3.59000	    6.000	 31.67	111.67	
     3.60000	    4.000	 30.00	110.00	
     3.61000	    4.000	 30.00	110.00	
     3.62000	    4.000	 30.00	110.00	
     3.63000	    4.000	 30.00	110.00	
     3.64000	    4.000	 30.00	110.00	
     3.65000	    4.000	 30.00	110.00	
     3.66000	    4.000	 30.00	110.00	
     3.67000	    4.000	 30.00	110.00	
     3.68000	    4.000	 30.00	110.00	
     3.69000	    4.000	 30.00	110.00	
     3.70000	    6.000	 31.67	111.67	
     3.71000	    6.000	 31.67	111.67	
     3.72000	    4.000	 30.00	110.00	
     3.73000	    4.000	 30.00	110.00	
     3.74000	    2.000	 25.00	115.00	
     3.75000	    4.000	 30.00	110.00	
     3.76000	    2.000	 25.00	115.00	
     3.77000	    0.000	  0.00	  0.00	
     3.78000	    2.000	 35.00	105.00	
     3.79000	    2.000	 35.00	105.00	
     3.80000	    0.000	  0.00	  0.00	
     3.81000	    0.000	  0.00	  0.00	
     3.82000	    0.000	  0.00	  0.00	
     3.83000	    0.000	  0.00	  0.00	
     3.84000	    0.000	  0.00	  0.00	
     3.85000	    0.000	  0.00	  0.00	
     3.86000	    0.000	  0.00	  0.00	
     3.87000	    0.000	  0.00	  0.00	
     3.88000	    0.000	  0.00	  0.00	
     3.89000	    0.000	  0.00	  0.00	
     3.90000	    0.000	  0.00	  0.00	
     3.91000	    0.000	  0.00	  0.00	
     3.92000	    0.000	  0.00	  0.00	
     3.93000	    0.000	  0.00	  0.00	
     3.94000	    0.000	  0.00	  0.00	
     3.95000	    0.000	  0.00	  0.00	
     3.96000	    0.000	  0.00	  0.00	
     3.97000	    0.000	  0.00	  0.00	
     3.98000	    0.000	  0.00	  0.00	
     3.99000	    0.000	  0.00	  0.00	
     4.00000	    0.000	  0.00	  0.00	
     4.01000	    0.000	  0.00	  0.00	
     4.02000	    0.000	  0.00	  0.00	
     4.03000	    0.000	  0.00	  0.00	
     4.04000	    0.000	  0.00	  0.00	
     4.05000	    0.000	  0.00	  0.00	
     4.06000	    0.000	  0.00	  0.00	
     4.07000	    0.000	  0.00	  0.00	
     4.08000	    0.000	  0.00	  0.00	
     4.09000	    0.000	  0.00	  0.00	
     4.10000	    0.000	  0.00	  0.00	
     4.11000	    0.000	  0.00	  0.00	
     4.12000	    0.000	  0.00	  0.00	
     4.13000	    0.000	  0.00	  0.00	
     4.14000	    0.000	  0.00	  0.00	
     4.15000	    0.000	  0.00	  0.00	
     4.16000	    0.000	  0.00	  0.00	
     4.17000	    0.000	  0.00	  0.00	
     4.18000	    0.000	  0.00	  0.00	
     4.19000	    0.000	  0.00	  0.00	
     4.20000	    0.000	  0.00	  0.00	
     4.21000	    0.000	  0.00	  0.00	
     4.22000	    0.000	  0.00	  0.00	
     4.23000	    0.000	  0.00	  0.00	
     4.24000	    0.000	  0.00	  0.00	
     4.25000	    0.000	  0.00	  0.00	
     4.26000	    0.000	  0.00	  0.00	
     4.27000	    0.000	  0.00	  0.00	
     4.28000	    0.000	  0.00	  0.00	
     4.29000	    0.000	  0.00	  0.00	
     4.30000	    0.000	  0.00	  0.00	
     4.31000	    0.000	  0.00	  0.00	
     4.32000	    0.000	  0.00	  0.00	
     4.33000	    0.000	  0.00	  0.00	
     4.34000	    0.000	  0.00	  0.00	
     4.35000	    0.000	  0.00	  0.00	
     4.36000	    0.000	  0.00	  0.00	
     4.37000	    0.000	  0.00	  0.00	
     4.38000	    0.000	  0.00	  0.00	
     4.39000	    0.000	  0.00	  0.00	
     4.40000	    0.000	  0.00	  0.00	
     4.41000	    2.000	 35.00	115.00	
     4.42000	    0.000	  0.00	  0.00	
     4.43000	    2.000	 35.00	115.00	
     4.44000	    4.000	 35.00	110.00	
     4.45000	    4.000	 35.00	110.00	
     4.46000	    4.000	 35.00	110.00	
     4.47000	    4.000	 35.00	110.00	
     4.48000	    4.000	 35.00	110.00	
     4.49000	    4.000	 35.00	110.00	
     4.50000	    4.000	 35.00	110.00	
     4.51000	    4.000	 35.00	110.00	
     4.52000	    4.000	 35.00	110.00	
     4.53000	    6.000	 31.67	111.67	
     4.54000	    8.000	 35.00	117.50	
     4.55000	    6.000	 38.33	118.33	
     4.56000	    8.000	 35.00	117.50	
     4.57000	    8.000	 35.00	117.50	
     4.58000	    8.000	 35.00	117.50	
     4.59000	    8.000	 35.00	117.50	
     4.60000	    8.000	 35.00	117.50	
     4.61000	    8.000	 35.00	117.50	
     4.62000	    8.000	 35.00	117.50	
     4.63000	    8.000	 35.00	117.50	
     4.64000	    8.000	 35.00	117.50	
     4.65000	    8.000	 35.00	117.50	
     4.66000	   10.000	 39.00	121.00	
     4.67000	    8.000	 35.00	117.50	
     4.68000	    8.000	 35.00	117.50	
     4.69000	    8.000	 35.00	117.50	
     4.70000	    8.000	 35.00	117.50	
     4.71000	    8.000	 35.00	117.50	
     4.72000	    8.000	 35.00	117.50	
     4.73000	    8.500	 34.41	117.35	
     4.74000	    8.500	 34.41	117.35	
     4.75000	    8.500	 34.41	117.35	
     4.76000	    8.500	 34.41	117.35	
     4.77000	    8.500	 34.41	117.35	
     4.78000	    8.500	 34.41	117.35	
     4.79000	    9.000	 33.89	117.22	
     4.80000	   11.000	 37.73	120.45	
     4.81000	   11.500	 37.61	119.78	
     4.82000	    9.500	 33.95	116.58	
     4.83000	    9.500	 33.95	116.58	
     4.84000	    9.500	 33.95	116.58	
     4.85000	    9.500	 33.95	116.58	
     4.86000	   10.500	 34.05	117.38	
     4.87000	   12.500	 37.40	120.20	
     4.88000	   12.500	 37.40	120.20	
     4.89000	   10.500	 34.05	117.38	
     4.90000	   12.500	 37.40	120.20	
     4.91000	   10.500	 34.05	117.38	
     4.92000	   14.500	 38.45	116.72	
     4.93000	   10.500	 34.05	117.38	
     4.94000	   12.500	 35.80	117.00	
     4.95000	   14.500	 38.45	116.72	
     4.96000	   10.500	 34.05	117.38	
     4.97000	   10.500	 34.05	117.38	
     4.98000	   16.500	 39.24	116.52	
     4.99000	   12.500	 37.40	120.20	
     5.00000	   12.500	 37.40	120.20	
     5.01000	   15.000	 38.67	117.33	
     5.02000	   14.500	 38.45	119.48	
     5.03000	   16.500	 39.24	117.73	
     5.04000	   17.000	 39.12	117.65	
     5.05000	   17.000	 39.41	117.06	
     5.06000	   19.000	 39.74	115.00	
     5.07000	   21.500	 38.49	114.53	
     5.08000	   23.500	 37.98	115.00	
     5.09000	   24.000	 38.13	115.42	
     5.10000	   22.000	 38.41	114.55	
     5.11000	   22.000	 38.41	114.55	
     5.12000	   22.000	 38.41	114.55	
     5.13000	   24.000	 38.96	115.42	
     5.14000	   26.500	 38.40	116.13	
     5.15000	   22.500	 38.11	114.56	
     5.16000	   26.500	 38.40	116.13	
     5.17000	   27.000	 38.33	115.93	
     5.18000	   29.500	 41.61	111.61	
     5.19000	   29.000	 41.03	111.90	
     5.20000	   32.500	 41.62	112.38	
     5.21000	   33.000	 41.36	112.42	
     5.22000	   31.000	 40.48	111.61	
     5.23000	   35.000	 42.14	112.00	
     5.24000	   33.500	 41.27	112.46	
     5.25000	   33.500	 41.27	111.27	
     5.26000	   35.500	 42.04	112.04	
     5.27000	   35.500	 42.04	112.04	
     5.28000	   33.500	 41.27	111.27	
     5.29000	   33.500	 41.27	112.46	
     5.30000	   35.500	 42.04	112.04	
     5.31000	   35.500	 42.04	112.04	
     5.32000	   35.500	 42.04	112.04	
     5.33000	   34.000	 41.32	112.79	
     5.34000	   35.500	 42.04	112.04	
     5.35000	   34.000	 41.32	112.79	
     5.36000	   33.500	 41.27	111.27	
     5.37000	   35.500	 42.04	112.04	
     5.38000	   36.000	 42.08	112.36	
     5.39000	   35.500	 42.04	112.04	
     5.40000	   33.500	 41.27	112.46	
     5.41000	   36.000	 42.08	112.36	
     5.42000	   35.500	 42.04	112.04	
     5.43000	   32.000	 40.47	112.03	
     5.44000	   33.500	 41.27	111.27	
     5.45000	   34.000	 41.32	111.62	
     5.46000	   31.500	 40.40	111.67	
     5.47000	   33.500	 41.27	112.46	
     5.48000	   34.000	 41.32	112.79	
     5.49000	   31.500	 40.40	111.67	
     5.50000	   33.500	 41.27	112.46	
     5.51000	   35.500	 42.04	112.04	
     5.52000	   35.000	 42.14	112.00	
     5.53000	   31.500	 40.40	111.67	
     5.54000	   33.500	 41.27	112.46	
     5.55000	   32.000	 40.47	112.03	
     5.56000	   33.000	 41.36	112.42	
     5.57000	   31.000	 40.48	111.61	
     5.58000	   33.000	 41.36	112.42	
     5.59000	   31.000	 39.19	116.13	
     5.60000	   29.500	 38.05	115.51	
     5.61000	   32.000	 41.56	112.34	
     5.62000	   31.500	 41.83	112.46	
     5.63000	   28.000	 38.57	115.71	
     5.64000	   30.500	 41.89	112.70	
     5.65000	   28.500	 39.56	116.75	
     5.66000	   24.500	 37.86	115.41	
     5.67000	   26.500	 39.15	116.13	
     5.68000	   24.500	 38.06	115.20	
     5.69000	   26.000	 38.65	116.15	
     5.70000	   26.000	 38.65	116.15	
     5.71000	   22.000	 38.41	114.55	
     5.72000	   22.000	 38.41	114.55	
     5.73000	   20.000	 39.75	115.50	
     5.74000	   20.000	 39.75	115.50	
     5.75000	   20.000	 39.75	115.50	
     5.76000	   20.000	 39.75	115.50	
     5.77000	   20.000	 39.75	115.50	
     5.78000	   20.000	 39.75	115.50	
     5.79000	   19.500	 39.87	115.51	
     5.80000	   20.000	 39.75	115.50	
     5.81000	   17.000	 39.41	118.24	
     5.82000	   16.500	 39.85	115.91	
     5.83000	   16.000	 39.69	115.31	
     5.84000	   18.000	 40.28	115.28	
     5.85000	   14.500	 39.14	118.79	
     5.86000	   14.000	 38.93	118.21	
     5.87000	   16.000	 39.69	117.81	
     5.88000	   16.000	 39.69	117.81	
     5.89000	   14.000	 38.93	116.79	
     5.90000	   12.000	 37.92	120.42	
     5.91000	   12.000	 38.75	121.25	
     5.92000	   13.500	 39.44	118.33	
     5.93000	   14.500	 39.14	118.79	
     5.94000	   12.000	 37.92	120.42	
     5.95000	   14.000	 39.64	118.93	
     5.96000	   12.000	 38.75	121.25	
     5.97000	   11.500	 38.48	120.65	
     5.98000	   14.000	 39.64	118.93	
     5.99000	   11.500	 38.48	120.65	
     6.00000	   12.000	 38.75	121.25	
     6.01000	   14.000	 39.64	118.93	
     6.02000	   14.000	 41.07	124.64	
     6.03000	   14.000	 39.64	118.93	
     6.04000	   14.000	 41.07	124.64	
     6.05000	   14.000	 41.07	124.64	
     6.06000	   14.000	 39.64	118.93	
     6.07000	   16.000	 41.56	122.19	
     6.08000	   14.000	 39.64	118.93	
     6.09000	   14.000	 39.64	117.50	
     6.10000	   16.000	 41.56	122.19	
     6.11000	   16.000	 41.56	122.19	
     6.12000	   16.000	 40.31	118.44	
     6.13000	   16.000	 41.56	122.19	
     6.14000	   16.000	 41.56	122.19	
     6.15000	   20.000	 42.25	118.75	
     6.16000	   20.000	 42.25	118.75	
     6.17000	   22.500	 43.22	119.00	
     6.18000	   22.000	 43.41	119.32	
     6.19000	   23.000	 43.26	119.57	
     6.20000	   23.000	 42.83	119.13	
     6.21000	   23.500	 42.66	118.83	
     6.22000	   23.000	 42.83	118.91	
     6.23000	   23.500	 42.87	119.47	
     6.24000	   24.000	 42.71	119.17	
     6.25000	   24.500	 42.35	119.08	
     6.26000	   24.500	 42.35	119.08	
     6.27000	   32.500	 46.08	115.00	
     6.28000	   28.500	 42.72	118.51	
     6.29000	   34.500	 46.01	115.58	
     6.30000	   33.000	 44.85	114.85	
     6.31000	   34.000	 44.41	119.26	
     6.32000	   33.000	 44.24	119.09	
     6.33000	   34.000	 45.00	115.15	
     6.34000	   36.000	 45.83	115.28	
     6.35000	   38.500	 44.09	114.22	
     6.36000	   38.500	 44.61	114.74	
     6.37000	   41.500	 45.00	115.00	
     6.38000	   41.500	 45.00	115.00	
     6.39000	   43.000	 46.28	112.44	
     6.40000	   42.000	 45.00	114.76	
     6.41000	   41.500	 45.00	115.00	
     6.42000	   42.000	 44.76	115.00	
     6.43000	   43.000	 44.88	114.77	
     6.44000	   43.000	 44.53	114.88	
     6.45000	   41.000	 43.54	114.39	
     6.46000	   43.000	 44.53	114.88	
     6.47000	   46.500	 45.86	112.42	
     6.48000	   46.000	 45.98	112.39	
     6.49000	   46.500	 46.08	111.88	
     6.50000	   47.000	 46.17	111.81	
     6.51000	   47.000	 46.17	111.81	
     6.52000	   47.000	 46.17	111.81	
     6.53000	   47.500	 46.16	111.95	
     6.54000	   47.000	 46.17	111.81	
     6.55000	   46.500	 46.18	111.99	
     6.56000	   47.000	 46.17	111.81	
     6.57000	   47.500	 46.26	111.84	
     6.58000	   49.000	 46.94	112.76	
     6.59000	   47.000	 46.17	111.81	
     6.60000	   48.500	 46.96	112.94	
     6.61000	   47.000	 46.17	111.81	
     6.62000	   47.000	 46.17	111.81	
     6.63000	   46.500	 46.08	111.56	
     6.64000	   46.500	 46.29	111.77	
     6.65000	   46.500	 46.18	111.99	
     6.66000	   46.500	 46.18	111.99	
     6.67000	   46.000	 45.98	112.39	
     6.68000	   46.000	 45.98	112.39	
     6.69000	   45.000	 46.00	112.56	
     6.70000	   45.500	 45.99	112.58	
     6.71000	   45.000	 45.89	112.67	
     6.72000	   45.000	 45.89	112.67	
     6.73000	   44.000	 46.36	112.73	
     6.74000	   44.000	 46.36	112.73	
     6.75000	   43.500	 46.38	112.70	
     6.76000	   41.500	 45.00	115.00	
     6.77000	   39.500	 43.99	114.49	
     6.78000	   39.500	 43.99	114.49	
     6.79000	   41.000	 45.24	115.00	
     6.80000	   40.500	 45.37	115.00	
     6.81000	   38.500	 43.83	118.12	
     6.82000	   34.000	 45.00	115.15	
     6.83000	   33.500	 44.25	119.03	
     6.84000	   31.000	 43.06	119.19	
     6.85000	   31.000	 42.90	118.71	
     6.86000	   32.500	 44.23	119.31	
     6.87000	   26.000	 42.12	119.62	
     6.88000	   28.000	 42.32	120.00	
     6.89000	   24.000	 42.71	119.17	
     6.90000	   24.000	 43.13	119.58	
     6.91000	   27.500	 44.82	120.27	
     6.92000	   24.000	 42.92	119.17	
     6.93000	   24.000	 42.92	119.17	
     6.94000	   21.500	 42.91	121.51	
     6.95000	   23.500	 43.09	119.47	
     6.96000	   26.500	 45.38	120.47	
     6.97000	   25.000	 45.20	120.00	
     6.98000	   24.500	 45.41	120.10	
     6.99000	   22.500	 43.67	119.67	
     7.00000	   24.500	 45.00	119.49	
     7.01000	   25.000	 45.20	120.00	
     7.02000	   25.000	 45.40	120.40	
     7.03000	   23.500	 43.30	119.26	
     7.04000	   23.000	 43.48	119.57	
     7.05000	   24.000	 43.13	119.79	
     7.06000	   26.500	 44.62	119.91	
     7.07000	   25.500	 44.22	118.14	
     7.08000	   26.000	 44.62	119.62	
     7.09000	   26.500	 44.62	119.91	
     7.10000	   28.500	 46.05	120.96	
     7.11000	   32.500	 44.69	119.62	
     7.12000	   34.500	 45.87	120.51	
     7.13000	   33.500	 46.64	120.52	
     7.14000	   35.500	 45.00	119.08	
     7.15000	   35.500	 45.14	119.65	
     7.16000	   38.500	 46.69	116.04	
     7.17000	   38.000	 46.05	119.87	
     7.18000	   39.500	 46.39	115.89	
     7.19000	   41.500	 47.29	116.81	
     7.20000	   39.500	 46.39	115.89	
     7.21000	   39.500	 46.39	115.89	
     7.22000	   42.000	 47.26	116.55	
     7.23000	   44.000	 46.25	116.02	
     7.24000	   44.000	 46.25	116.25	
     7.25000	   46.500	 47.47	113.82	
     7.26000	   46.500	 47.58	113.92	
     7.27000	   49.500	 47.53	113.18	
     7.28000	   47.500	 47.32	113.74	
     7.29000	   48.000	 47.19	113.75	
     7.30000	   47.500	 47.11	113.84	
     7.31000	   49.000	 46.84	113.88	
     7.32000	   51.500	 47.14	112.96	
     7.33000	   49.500	 46.82	113.69	
     7.34000	   49.500	 46.82	113.69	
     7.35000	   49.500	 46.82	113.69	
     7.36000	   49.500	 46.82	113.69	
     7.37000	   53.500	 47.34	112.66	
     7.38000	   51.000	 46.47	113.63	
     7.39000	   50.500	 46.98	113.02	
     7.40000	   54.000	 47.04	112.31	
     7.41000	   54.500	 46.83	112.34	
     7.42000	   55.000	 46.91	112.27	
     7.43000	   54.500	 46.83	112.34	
     7.44000	   56.000	 46.79	112.50	
     7.45000	   55.500	 47.07	112.66	
     7.46000	   56.500	 46.77	112.52	
     7.47000	   57.000	 46.67	112.54	
     7.48000	   57.500	 46.74	112.57	
     7.49000	   57.000	 46.67	112.54	
     7.50000	   57.500	 46.91	112.48	
     7.51000	   57.500	 46.74	112.65	
     7.52000	   58.000	 46.55	112.50	
     7.53000	   59.000	 46.36	112.54	
     7.54000	   60.000	 46.50	112.17	
     7.55000	   62.000	 47.10	113.23	
     7.56000	   60.500	 46.57	112.02	
     7.57000	   62.500	 46.84	111.16	
     7.58000	   63.500	 46.65	111.14	
     7.59000	   61.000	 46.56	112.05	
     7.60000	   61.000	 46.56	112.05	
     7.61000	   64.000	 46.41	111.25	
     7.62000	   66.500	 46.20	110.86	
     7.63000	   65.000	 46.46	111.31	
     7.64000	   62.500	 46.12	111.96	
     7.65000	   67.500	 46.04	110.85	
     7.66000	   67.000	 45.97	110.67	
     7.67000	   65.500	 46.45	113.02	
     7.68000	   69.500	 46.37	111.69	
     7.69000	   69.500	 46.37	111.69	
     7.70000	   70.500	 46.35	111.95	
     7.71000	   69.000	 45.80	111.01	
     7.72000	   68.500	 45.73	110.69	
     7.73000	   69.500	 45.72	110.97	
     7.74000	   70.000	 46.36	111.71	
     7.75000	   70.500	 46.35	111.81	
     7.76000	   71.500	 46.05	111.71	
     7.77000	   71.500	 46.19	111.78	
     7.78000	   69.000	 45.58	110.65	
     7.79000	   72.000	 46.39	111.46	
     7.80000	   73.000	 46.37	111.44	
     7.81000	   72.500	 46.31	111.55	
     7.82000	   72.000	 46.11	111.88	
     7.83000	   73.000	 46.37	111.44	
     7.84000	   73.500	 46.22	111.39	
     7.85000	   74.000	 46.08	111.35	
     7.86000	   77.000	 46.49	110.19	
     7.87000	   75.000	 46.00	111.27	
     7.88000	   78.500	 46.78	109.84	
     7.89000	   78.000	 46.54	110.13	
     7.90000	   79.000	 46.77	109.81	
     7.91000	   78.000	 46.73	109.74	
     7.92000	   79.000	 46.77	109.81	
     7.93000	   79.500	 46.70	109.84	
     7.94000	   77.500	 46.23	111.00	
     7.95000	   80.500	 46.68	109.72	
     7.96000	   79.500	 46.70	109.72	
     7.97000	   80.500	 46.68	109.72	
     7.98000	   79.500	 46.70	109.72	
     7.99000	   80.000	 46.75	109.81	
     8.00000	   80.000	 46.75	109.81	
     8.01000	   81.000	 46.54	109.75	
     8.02000	   81.500	 46.60	109.97	
     8.03000	   81.000	 46.54	109.75	
     8.04000	   80.500	 46.61	109.84	
     8.05000	   81.500	 46.60	109.97	
     8.06000	   80.500	 46.49	109.78	
     8.07000	   81.500	 46.60	109.97	
     8.08000	   81.500	 46.47	110.09	
     8.09000	   83.000	 46.99	109.88	
     8.10000	   81.000	 46.54	109.75	
     8.11000	   81.000	 46.54	109.75	
     8.12000	   81.000	 46.54	109.75	
     8.13000	   84.000	 46.96	110.00	
     8.14000	   83.500	 46.92	109.97	
     8.15000	   81.500	 46.41	109.72	
     8.16000	   82.500	 46.52	109.97	
     8.17000	   84.500	 46.83	109.97	
     8.18000	   82.500	 46.52	109.97	
     8.19000	   85.500	 46.87	110.03	
     8.20000	   87.000	 47.01	110.00	
     8.21000	   87.500	 46.89	110.14	
     8.22000	   90.000	 46.72	109.39	
     8.23000	   87.500	 46.77	109.91	
     8.24000	   89.500	 46.90	110.08	
     8.25000	   88.500	 46.75	110.37	
     8.26000	   90.000	 46.83	110.17	
     8.27000	   92.000	 46.79	109.67	
     8.28000	   90.000	 46.83	110.22	
     8.29000	   90.500	 46.77	110.14	
     8.30000	   93.500	 46.93	109.44	
     8.31000	   91.000	 46.70	110.22	
     8.32000	   93.500	 46.82	109.39	
     8.33000	   93.500	 46.60	109.92	
     8.34000	   94.000	 46.76	109.68	
     8.35000	   94.000	 46.81	109.89	
     8.36000	   96.000	 46.72	109.90	
     8.37000	   94.500	 46.32	110.03	
     8.38000	   95.500	 46.68	109.97	
     8.39000	   95.000	 46.53	110.21	
     8.40000	   96.000	 46.61	109.79	
     8.41000	   96.000	 46.56	110.00	
     8.42000	   96.500	 46.66	110.08	
     8.43000	   95.500	 46.31	110.24	
     8.44000	   95.000	 46.42	110.16	
     8.45000	   96.500	 46.55	110.34	
     8.46000	   97.000	 46.60	110.26	
     8.47000	   97.000	 46.60	110.26	
     8.48000	   96.500	 46.55	110.34	
     8.49000	   97.000	 46.60	110.26	
     8.50000	   97.000	 46.55	110.46	
     8.51000	   97.500	 46.59	110.38	
     8.52000	   97.000	 46.60	110.26	
     8.53000	   97.000	 46.60	110.26	
     8.54000	   97.000	 46.55	110.46	
     8.55000	   96.500	 46.55	110.34	
     8.56000	   96.500	 46.55	110.34	
     8.57000	   97.000	 46.55	110.46	
     8.58000	   97.000	 46.55	110.46	
     8.59000	   97.000	 46.55	110.46	
     8.60000	   98.000	 46.73	110.15	
     8.61000	   97.500	 46.59	110.64	
     8.62000	   96.500	 46.55	111.11	
     8.63000	   98.000	 46.48	110.41	
     8.64000	   98.500	 46.52	110.58	
     8.65000	   97.500	 46.44	110.49	
     8.66000	   98.000	 46.63	110.56	
     8.67000	   97.500	 46.69	110.23	
     8.68000	   97.500	 46.69	110.23	
     8.69000	   97.500	 46.59	110.38	
     8.70000	   97.000	 46.55	110.46	
     8.71000	   94.500	 46.59	111.24	
     8.72000	   95.000	 46.58	111.00	
     8.73000	   94.500	 46.69	111.03	
     8.74000	   96.500	 46.55	110.96	
     8.75000	   96.500	 46.55	110.96	
     8.76000	   96.500	 46.66	110.49	
     8.77000	   97.000	 46.80	110.26	
     8.78000	   94.500	 46.69	111.03	
     8.79000	   96.000	 46.51	110.78	
     8.80000	   96.500	 46.55	110.96	
     8.81000	   96.500	 46.55	110.96	
     8.82000	   96.500	 46.55	110.96	
     8.83000	   96.000	 46.51	110.78	
     8.84000	   96.000	 46.51	110.78	
     8.85000	   94.500	 46.59	111.51	
     8.86000	   94.000	 46.70	111.22	
     8.87000	   95.500	 46.78	110.97	
     8.88000	   96.000	 46.67	110.94	
     8.89000	   93.000	 46.77	111.34	
     8.90000	   93.500	 46.87	111.42	
     8.91000	   93.500	 46.82	111.52	
     8.92000	   93.500	 46.82	111.52	
     8.93000	   95.000	 46.79	110.95	
     8.94000	   94.000	 46.70	111.54	
     8.95000	   93.500	 46.66	111.31	
     8.96000	   94.500	 46.59	111.51	
     8.97000	   94.000	 46.70	111.54	
     8.98000	   94.500	 46.59	111.51	
     8.99000	   93.500	 46.82	111.52	
     9.00000	   93.500	 46.82	111.52	
     9.01000	   93.500	 46.82	111.52	
     9.02000	   93.000	 46.83	111.51	
     9.03000	   91.000	 46.43	112.53	
     9.04000	   90.500	 46.38	112.51	
     9.05000	   91.000	 46.98	111.48	
     9.06000	   91.000	 46.92	111.59	
     9.07000	   89.000	 46.63	112.58	
     9.08000	   87.500	 46.60	112.60	
     9.09000	   87.000	 46.67	112.53	
     9.10000	   87.000	 46.55	112.41	
     9.11000	   86.000	 46.74	112.50	
     9.12000	   85.500	 46.81	112.54	
     9.13000	   85.500	 46.75	112.43	
     9.14000	   86.000	 46.69	112.38	
     9.15000	   86.000	 46.74	112.50	
     9.16000	   85.000	 46.88	112.47	
     9.17000	   85.000	 46.82	112.53	
     9.18000	   86.000	 46.86	112.73	
     9.19000	   86.500	 46.91	112.69	
     9.20000	   86.000	 46.74	112.44	
     9.21000	   90.000	 47.11	111.56	
     9.22000	   87.500	 46.83	112.60	
     9.23000	   89.500	 47.23	111.54	
     9.24000	   87.500	 46.66	112.66	
     9.25000	   89.500	 47.12	111.59	
     9.26000	   90.000	 47.17	111.44	
     9.27000	   88.000	 46.76	112.50	
     9.28000	   91.000	 47.20	111.54	
     9.29000	   90.000	 47.28	111.56	
     9.30000	   91.000	 47.14	111.65	
     9.31000	   90.500	 47.21	111.46	
     9.32000	   90.500	 46.99	111.57	
     9.33000	   92.000	 47.23	111.30	
     9.34000	   91.000	 47.20	111.54	
     9.35000	   91.000	 47.20	111.54	
     9.36000	   90.000	 47.22	111.61	
     9.37000	   89.500	 47.18	111.48	
     9.38000	   88.500	 47.37	111.50	
     9.39000	   87.000	 46.95	112.53	
     9.40000	   84.500	 47.07	112.63	
     9.41000	   83.000	 47.23	112.47	
     9.42000	   83.000	 47.29	112.53	
     9.43000	   83.000	 47.41	112.65	
     9.44000	   81.500	 47.58	112.61	
     9.45000	   81.000	 47.53	112.41	
     9.46000	   79.500	 47.58	112.42	
     9.47000	   78.500	 47.36	112.39	
     9.48000	   78.000	 47.44	112.24	
     9.49000	   75.500	 47.38	112.68	
     9.50000	   75.000	 47.33	112.67	
     9.51000	   74.500	 47.48	112.72	
     9.52000	   73.500	 47.45	113.03	
     9.53000	   70.500	 47.91	113.58	
     9.54000	   71.500	 48.15	113.11	
     9.55000	   70.500	 47.91	113.58	
     9.56000	   67.500	 47.67	113.67	
     9.57000	   69.500	 48.17	113.63	
     9.58000	   69.000	 48.26	113.70	
     9.59000	   68.000	 48.38	113.53	
     9.60000	   68.000	 48.38	113.53	
     9.61000	   64.000	 47.73	114.61	
     9.62000	   68.000	 48.46	113.75	
     9.63000	   68.000	 48.46	113.75	
     9.64000	   68.500	 48.43	113.69	
     9.65000	   63.500	 47.91	114.61	
     9.66000	   65.500	 48.05	115.00	
     9.67000	   66.500	 48.38	114.10	
     9.68000	   66.000	 48.48	114.62	
     9.69000	   66.500	 48.38	114.17	
     9.70000	   64.500	 48.18	115.00	
     9.71000	   65.000	 48.38	114.54	
     9.72000	   67.000	 48.58	113.66	
     9.73000	   67.500	 48.56	113.59	
     9.74000	   64.500	 48.33	114.46	
     9.75000	   66.000	 48.41	114.55	
     9.76000	   69.000	 48.55	113.84	
     9.77000	   68.500	 48.43	113.69	
     9.78000	   68.500	 48.43	113.69	
     9.79000	   69.000	 48.55	113.84	
     9.80000	   69.000	 48.55	113.84	
     9.81000	   70.000	 48.29	113.79	
     9.82000	   71.500	 48.43	113.67	
     9.83000	   72.500	 48.24	113.62	
     9.84000	   75.000	 47.93	112.80	
     9.85000	   77.000	 48.25	112.34	
     9.86000	   77.500	 48.03	112.48	
     9.87000	   78.500	 47.80	112.45	
     9.88000	   80.000	 47.88	112.63	
     9.89000	   82.000	 47.56	112.56	
     9.90000	   82.500	 47.55	112.70	
     9.91000	   83.000	 47.59	112.65	
     9.92000	   85.000	 47.18	112.65	
     9.93000	   88.500	 47.60	111.44	
     9.94000	   89.500	 47.35	112.54	
     9.95000	   90.500	 47.27	112.46	
     9.96000	   94.000	 47.61	111.44	
     9.97000	   95.500	 47.41	111.44	
     9.98000	   95.000	 47.42	111.16	
     9.99000	   97.000	 47.47	111.13	
    10.00000	   98.500	 47.39	110.58	
    10.01000	   99.000	 47.42	110.61	
    10.02000	  100.000	 47.40	110.80	
    10.03000	  100.500	 47.29	110.77	
    10.04000	  102.000	 47.16	111.27	
    10.05000	  100.500	 47.29	110.77	
    10.06000	  103.000	 47.14	111.46	
    10.07000	  100.500	 47.09	110.62	
    10.08000	  100.500	 47.09	110.62	
    10.09000	   99.500	 47.16	110.58	
    10.10000	   98.000	 47.04	110.46	
    10.11000	   98.000	 46.94	110.46	
    10.12000	   97.000	 46.96	110.26	
    10.13000	   96.500	 46.71	110.60	
    10.14000	   96.000	 46.72	110.57	
    10.15000	   92.000	 46.79	111.36	
    10.16000	   93.500	 46.76	110.72	
    10.17000	   91.500	 46.80	111.28	
    10.18000	   87.500	 46.43	112.20	
    10.19000	   86.500	 46.68	110.72	
    10.20000	   84.000	 46.19	111.73	
    10.21000	   82.500	 46.52	111.73	
    10.22000	   84.000	 47.02	110.65	
    10.23000	   81.000	 46.60	111.98	
    10.24000	   80.000	 46.44	111.44	
    10.25000	   80.000	 46.38	111.38	
    10.26000	   77.500	 46.55	111.52	
    10.27000	   75.000	 46.07	111.27	
    10.28000	   76.500	 46.50	111.27	
    10.29000	   75.500	 46.59	111.36	
    10.30000	   76.000	 46.51	111.18	
    10.31000	   74.000	 46.15	111.15	
    10.32000	   73.500	 46.09	111.26	
    10.33000	   76.000	 46.45	109.67	
    10.34000	   71.500	 45.49	110.03	
    10.35000	   74.000	 46.08	110.88	
    10.36000	   73.500	 46.02	110.99	
    10.37000	   74.000	 45.95	111.08	
    10.38000	   76.000	 46.58	109.67	
    10.39000	   76.000	 46.58	110.99	
    10.40000	   76.500	 46.63	109.31	
    10.41000	   76.500	 46.11	108.40	
    10.42000	   80.000	 47.19	109.44	
    10.43000	   81.500	 47.15	109.11	
    10.44000	   83.500	 46.32	107.22	
    10.45000	   84.500	 46.18	107.19	
    10.46000	   86.500	 46.33	107.08	
    10.47000	   88.500	 46.07	106.47	
    10.48000	   84.500	 45.65	106.07	
    10.49000	   86.500	 45.98	106.79	
    10.50000	   90.000	 45.89	106.44	
    10.51000	   91.000	 45.71	106.37	
    10.52000	   92.500	 45.76	106.57	
    10.53000	   93.500	 45.70	106.55	
    10.54000	   95.500	 45.58	106.68	
    10.55000	   96.500	 45.41	106.81	
    10.56000	  100.500	 45.20	106.14	
    10.57000	  101.500	 45.20	106.13	
    10.58000	  104.500	 45.05	106.00	
    10.59000	  106.500	 45.14	105.70	
    10.60000	  109.000	 44.95	105.60	
    10.61000	  111.500	 44.82	105.72	
    10.62000	  115.500	 44.91	105.65	
    10.63000	  117.000	 44.91	105.73	
    10.64000	  122.000	 44.84	105.41	
    10.65000	  126.000	 44.52	105.32	
    10.66000	  131.500	 44.54	105.38	
    10.67000	  138.500	 44.82	105.00	
    10.68000	  152.000	 44.80	104.80	
    10.69000	  167.500	 44.52	105.51	
    10.70000	  188.500	 44.44	105.27	
    10.71000	  223.500	 45.00	105.51	
    10.72000	  266.500	 45.47	106.14	
    10.73000	  325.500	 45.97	106.14	
    10.74000	  378.500	 46.59	106.51	
    10.75000	  428.000	 46.94	107.03	
    10.76000	  459.500	 47.07	107.46	
    10.77000	  480.000	 47.10	107.92	
    10.78000	  481.000	 47.11	108.31	
    10.79000	  467.000	 47.03	108.07	
    10.80000	  444.500	 46.75	108.00	
    10.81000	  415.000	 46.54	107.99	
    10.82000	  384.000	 46.16	107.79	
    10.83000	  355.000	 46.00	107.68	
    10.84000	  328.000	 45.66	107.27	
    10.85000	  302.000	 45.51	107.22	
    10.86000	  282.000	 45.60	107.11	
    10.87000	  265.000	 45.64	106.81	
    10.88000	  250.500	 45.76	107.22	
    10.89000	  237.000	 45.42	107.64	
    10.90000	  223.500	 45.22	107.04	
    10.91000	  212.000	 45.00	106.65	
    10.92000	  203.000	 45.17	106.75	
    10.93000	  193.500	 45.03	107.20	
    10.94000	  185.000	 44.84	107.46	
    10.95000	  182.500	 45.08	107.44	
    10.96000	  176.000	 44.80	108.15	
    10.97000	  171.500	 44.88	108.12	
    10.98000	  168.500	 45.06	108.23	
    10.99000	  167.000	 45.15	108.26	
    11.00000	  162.000	 44.85	108.21	
    11.01000	  160.500	 45.03	108.33	
    11.02000	  159.500	 44.97	108.01	
    11.03000	  157.500	 44.97	107.86	
    11.04000	  157.500	 45.00	107.89	
    11.05000	  156.500	 45.10	108.19	
    11.06000	  156.000	 45.06	108.17	
    11.07000	  154.500	 44.90	109.08	
    11.08000	  155.500	 45.10	108.47	
    11.09000	  156.000	 45.32	108.91	
    11.10000	  154.000	 45.06	109.35	
    11.11000	  156.500	 45.45	108.77	
    11.12000	  159.500	 45.60	109.01	
    11.13000	  157.500	 45.35	109.06	
    11.14000	  158.000	 45.35	109.46	
    11.15000	  160.000	 45.59	109.00	
    11.16000	  157.000	 45.41	109.08	
    11.17000	  154.500	 45.19	109.50	
    11.18000	  153.500	 45.23	109.10	
    11.19000	  154.500	 45.58	109.47	
    11.20000	  153.500	 45.52	109.63	
    11.21000	  153.000	 45.59	110.00	
    11.22000	  152.500	 45.66	109.62	
    11.23000	  153.000	 45.88	109.71	
    11.24000	  149.500	 45.40	110.28	
    11.25000	  149.500	 45.47	110.18	
    11.26000	  148.500	 45.61	110.08	
    11.27000	  145.500	 45.45	110.12	
    11.28000	  144.000	 45.56	110.38	
    11.29000	  142.500	 45.60	110.33	
    11.30000	  138.000	 45.65	111.38	
    11.31000	  138.500	 46.08	111.61	
    11.32000	  137.500	 46.16	111.58	
    11.33000	  139.000	 46.19	112.05	
    11.34000	  133.500	 45.79	111.59	
    11.35000	  135.000	 46.26	111.78	
    11.36000	  135.500	 46.25	112.34	
    11.37000	  131.000	 45.99	112.06	
    11.38000	  128.500	 46.01	111.50	
    11.39000	  127.000	 46.18	111.57	
    11.40000	  125.000	 46.16	111.60	
    11.41000	  120.000	 46.54	111.42	
    11.42000	  118.000	 46.86	111.65	
    11.43000	  117.000	 46.97	111.67	
    11.44000	  115.000	 46.87	111.22	
    11.45000	  113.500	 46.89	111.12	
    11.46000	  109.000	 47.02	111.51	
    11.47000	  108.500	 47.07	111.54	
    11.48000	  106.500	 47.11	111.48	
    11.49000	  103.500	 47.32	111.43	
    11.50000	  102.500	 47.54	111.44	
    11.51000	  101.000	 47.57	111.34	
    11.52000	   96.500	 47.49	110.96	
    11.53000	   94.000	 47.77	110.96	
    11.54000	   92.000	 48.04	110.92	
    11.55000	   88.000	 48.24	111.53	
    11.56000	   88.000	 48.01	110.74	
    11.57000	   83.000	 48.25	111.14	
    11.58000	   80.500	 48.48	110.84	
    11.59000	   77.000	 48.83	110.32	
    11.60000	   73.500	 49.01	110.71	
    11.61000	   72.000	 49.24	110.56	
    11.62000	   69.000	 49.49	110.36	
    11.63000	   65.000	 49.23	110.00	
    11.64000	   63.500	 49.17	109.65	
    11.65000	   59.500	 48.87	108.11	
    11.66000	   55.000	 48.55	106.09	
    11.67000	   51.500	 48.40	106.84	
    11.68000	   45.500	 48.85	106.21	
    11.69000	   44.000	 49.20	106.02	
    11.70000	   38.000	 48.82	101.97	
    11.71000	   32.500	 48.23	 98.08	
    11.72000	   25.000	 50.60	 93.20	
    11.73000	   23.000	 50.22	 91.30	
    11.74000	   20.000	 51.75	 88.00	
    11.75000	   18.000	 53.61	 85.83	
    11.76000	   15.500	 55.65	 82.42	
    11.77000	   15.000	 56.33	 81.67	
    11.78000	   15.000	 56.33	 81.67	
    11.79000	   15.500	 56.94	 81.13	
    11.80000	   13.500	 61.67	 76.11	
    11.81000	   14.000	 62.14	 75.71	
    11.82000	   10.000	 73.00	 62.00	
    11.83000	   10.000	 73.00	 62.00	
    11.84000	   12.000	 75.00	 62.50	
    11.85000	   12.500	 75.00	 62.60	
    11.86000	   13.000	 75.38	 62.69	
    11.87000	   13.000	 75.38	 62.69	
    11.88000	   13.000	 75.38	 62.69	
    11.89000	   13.000	 78.46	 61.15	
    11.90000	   13.500	 78.70	 61.30	
    11.91000	   13.500	 78.70	 61.67	
    11.92000	   13.000	 78.85	 61.54	
    11.93000	   13.000	 78.85	 61.54	
    11.94000	   12.500	 79.00	 61.80	
    11.95000	   13.000	 79.23	 61.92	
    11.96000	   13.000	 78.85	 61.92	
    11.97000	   13.000	 78.85	 61.92	
    11.98000	   13.500	 79.07	 62.04	
    11.99000	   13.000	 78.85	 61.92	
    12.00000	   13.500	 79.07	 62.04	
    12.01000	   12.500	 79.00	 61.80	
    12.02000	   12.500	 79.00	 61.80	
    12.03000	   12.000	 79.17	 61.67	
    12.04000	   10.000	 80.00	 63.00	
    12.05000	    8.000	 78.75	 65.00	
    12.06000	    7.500	 79.00	 65.00	
    12.07000	    7.000	 79.29	 65.00	
    12.08000	    6.500	 78.85	 65.00	
    12.09000	    5.500	 79.55	 65.00	
    12.10000	    5.000	 79.00	 65.00	
    12.11000	    2.500	 75.00	 65.00	
    12.12000	    2.000	 75.00	 65.00	
    12.13000	    0.000	  0.00	  0.00	
    12.14000	    0.000	  0.00	  0.00	
    12.15000	    0.000	  0.00	  0.00	
    12.16000	    0.000	  0.00	  0.00	
    12.17000	    0.000	  0.00	  0.00	
    12.18000	    0.000	  0.00	  0.00	
    12.19000	    0.000	  0.00	  0.00	
    12.20000	    0.000	  0.00	  0.00	
    12.21000	    0.000	  0.00	  0.00	
    12.22000	    0.000	  0.00	  0.00	
    12.23000	    0.000	  0.00	  0.00	
    12.24000	    0.000	  0.00	  0.00	
    12.25000	    0.000	  0.00	  0.00	
    12.26000	    0.000	  0.00	  0.00	
    12.27000	    0.000	  0.00	  0.00	
    12.28000	    0.000	  0.00	  0.00	
    12.29000	    0.000	  0.00	  0.00	
    12.30000	    0.000	  0.00	  0.00	
    12.31000	    0.000	  0.00	  0.00	
    12.32000	    0.000	  0.00	  0.00	
    12.33000	    0.000	  0.00	  0.00	
    12.34000	    0.000	  0.00	  0.00	
    12.35000	    0.000	  0.00	  0.00	
    12.36000	    0.000	  0.00	  0.00	
    12.37000	    0.000	  0.00	  0.00	
    12.38000	    0.000	  0.00	  0.00	
    12.39000	    0.000	  0.00	  0.00	
    12.40000	    0.000	  0.00	  0.00	
    12.41000	    0.000	  0.00	  0.00	
    12.42000	    0.000	  0.00	  0.00	
    12.43000	    0.000	  0.00	  0.00	
    12.44000	    0.000	  0.00	  0.00	
    12.45000	    0.000	  0.00	  0.00	
    12.46000	    0.000	  0.00	  0.00	
    12.47000	    0.000	  0.00	  0.00	
    12.48000	    0.000	  0.00	  0.00	
    12.49000	    0.000	  0.00	  0.00	
    12.50000	    0.000	  0.00	  0.00	
    12.51000	    0.000	  0.00	  0.00	
    12.52000	    0.000	  0.00	  0.00	
    12.53000	    0.000	  0.00	  0.00	
    12.54000	    0.000	  0.00	  0.00	
    12.55000	    0.000	  0.00	  0.00	
    12.56000	    0.000	  0.00	  0.00	
    12.57000	    0.000	  0.00	  0.00	
    12.58000	    0.000	  0.00	  0.00	
    12.59000	    0.000	  0.00	  0.00	
    12.60000	    0.000	  0.00	  0.00	
    12.61000	    0.000	  0.00	  0.00	
    12.62000	    0.000	  0.00	  0.00	
    12.63000	    0.000	  0.00	  0.00	
    12.64000	    0.000	  0.00	  0.00	
    12.65000	    0.000	  0.00	  0.00	
    12.66000	    0.000	  0.00	  0.00	
    12.67000	    0.000	  0.00	  0.00	
    12.68000	    0.000	  0.00	  0.00	
    12.69000	    0.000	  0.00	  0.00	
    12.70000	    0.000	  0.00	  0.00	
