file name:  S2128_09_1_2_MPa_PXF440_220809_492.mat	date/time  02.09.22 16.45
sensor type:  s2128_09_1_2_mpa_pxf440_220809 
force time integral[N*s]:       331.920
pressure time integral [kPa*s]:      438.350
total time [secs]:  11.360	time per frame [secs]:  0.01000	scanning rate [Hz]:   100


time[secs]    	force[N]   	x[mm]     	y[mm] 	

     0.01000	    0.000	  0.00	  0.00	
     0.02000	    0.000	  0.00	  0.00	
     0.03000	    0.000	  0.00	  0.00	
     0.04000	    0.000	  0.00	  0.00	
     0.05000	    0.000	  0.00	  0.00	
     0.06000	    0.000	  0.00	  0.00	
     0.07000	    0.000	  0.00	  0.00	
     0.08000	    0.000	  0.00	  0.00	
     0.09000	    0.000	  0.00	  0.00	
     0.10000	    0.000	  0.00	  0.00	
     0.11000	    0.000	  0.00	  0.00	
     0.12000	    0.000	  0.00	  0.00	
     0.13000	    0.000	  0.00	  0.00	
     0.14000	    0.000	  0.00	  0.00	
     0.15000	    0.000	  0.00	  0.00	
     0.16000	    0.000	  0.00	  0.00	
     0.17000	    0.000	  0.00	  0.00	
     0.18000	    0.000	  0.00	  0.00	
     0.19000	    0.000	  0.00	  0.00	
     0.20000	    0.000	  0.00	  0.00	
     0.21000	    0.000	  0.00	  0.00	
     0.22000	    0.000	  0.00	  0.00	
     0.23000	    0.000	  0.00	  0.00	
     0.24000	    0.000	  0.00	  0.00	
     0.25000	    0.000	  0.00	  0.00	
     0.26000	    0.000	  0.00	  0.00	
     0.27000	    0.000	  0.00	  0.00	
     0.28000	    0.000	  0.00	  0.00	
     0.29000	    0.000	  0.00	  0.00	
     0.30000	    0.000	  0.00	  0.00	
     0.31000	    0.000	  0.00	  0.00	
     0.32000	    0.000	  0.00	  0.00	
     0.33000	    0.000	  0.00	  0.00	
     0.34000	    0.000	  0.00	  0.00	
     0.35000	    0.000	  0.00	  0.00	
     0.36000	    0.000	  0.00	  0.00	
     0.37000	    0.000	  0.00	  0.00	
     0.38000	    0.000	  0.00	  0.00	
     0.39000	    0.000	  0.00	  0.00	
     0.40000	    0.000	  0.00	  0.00	
     0.41000	    0.000	  0.00	  0.00	
     0.42000	    0.000	  0.00	  0.00	
     0.43000	    0.000	  0.00	  0.00	
     0.44000	    0.000	  0.00	  0.00	
     0.45000	    0.000	  0.00	  0.00	
     0.46000	    0.000	  0.00	  0.00	
     0.47000	    0.000	  0.00	  0.00	
     0.48000	    0.000	  0.00	  0.00	
     0.49000	    0.000	  0.00	  0.00	
     0.50000	    0.000	  0.00	  0.00	
     0.51000	    0.000	  0.00	  0.00	
     0.52000	    0.000	  0.00	  0.00	
     0.53000	    0.000	  0.00	  0.00	
     0.54000	    0.000	  0.00	  0.00	
     0.55000	    0.000	  0.00	  0.00	
     0.56000	    0.000	  0.00	  0.00	
     0.57000	    0.000	  0.00	  0.00	
     0.58000	    0.000	  0.00	  0.00	
     0.59000	    0.000	  0.00	  0.00	
     0.60000	    0.000	  0.00	  0.00	
     0.61000	    0.000	  0.00	  0.00	
     0.62000	    0.000	  0.00	  0.00	
     0.63000	    0.000	  0.00	  0.00	
     0.64000	    0.000	  0.00	  0.00	
     0.65000	    0.000	  0.00	  0.00	
     0.66000	    0.000	  0.00	  0.00	
     0.67000	    0.000	  0.00	  0.00	
     0.68000	    0.000	  0.00	  0.00	
     0.69000	    0.000	  0.00	  0.00	
     0.70000	    0.000	  0.00	  0.00	
     0.71000	    0.000	  0.00	  0.00	
     0.72000	    0.000	  0.00	  0.00	
     0.73000	    0.000	  0.00	  0.00	
     0.74000	    0.000	  0.00	  0.00	
     0.75000	    0.000	  0.00	  0.00	
     0.76000	    0.000	  0.00	  0.00	
     0.77000	    0.000	  0.00	  0.00	
     0.78000	    0.000	  0.00	  0.00	
     0.79000	    0.000	  0.00	  0.00	
     0.80000	    0.000	  0.00	  0.00	
     0.81000	    0.000	  0.00	  0.00	
     0.82000	    0.000	  0.00	  0.00	
     0.83000	    0.000	  0.00	  0.00	
     0.84000	    0.000	  0.00	  0.00	
     0.85000	    0.000	  0.00	  0.00	
     0.86000	    0.000	  0.00	  0.00	
     0.87000	    0.000	  0.00	  0.00	
     0.88000	    0.000	  0.00	  0.00	
     0.89000	    0.000	  0.00	  0.00	
     0.90000	    0.000	  0.00	  0.00	
     0.91000	    0.000	  0.00	  0.00	
     0.92000	    0.000	  0.00	  0.00	
     0.93000	    0.000	  0.00	  0.00	
     0.94000	    0.000	  0.00	  0.00	
     0.95000	    0.000	  0.00	  0.00	
     0.96000	    0.000	  0.00	  0.00	
     0.97000	    0.000	  0.00	  0.00	
     0.98000	    0.000	  0.00	  0.00	
     0.99000	    0.000	  0.00	  0.00	
     1.00000	    0.000	  0.00	  0.00	
     1.01000	    0.000	  0.00	  0.00	
     1.02000	    0.000	  0.00	  0.00	
     1.03000	    0.000	  0.00	  0.00	
     1.04000	    0.000	  0.00	  0.00	
     1.05000	    0.000	  0.00	  0.00	
     1.06000	    0.000	  0.00	  0.00	
     1.07000	    0.000	  0.00	  0.00	
     1.08000	    0.000	  0.00	  0.00	
     1.09000	    0.000	  0.00	  0.00	
     1.10000	    0.000	  0.00	  0.00	
     1.11000	    0.000	  0.00	  0.00	
     1.12000	    0.000	  0.00	  0.00	
     1.13000	    0.000	  0.00	  0.00	
     1.14000	    0.000	  0.00	  0.00	
     1.15000	    0.000	  0.00	  0.00	
     1.16000	    0.000	  0.00	  0.00	
     1.17000	    0.000	  0.00	  0.00	
     1.18000	    0.000	  0.00	  0.00	
     1.19000	    0.000	  0.00	  0.00	
     1.20000	    0.000	  0.00	  0.00	
     1.21000	    0.000	  0.00	  0.00	
     1.22000	    0.000	  0.00	  0.00	
     1.23000	    0.000	  0.00	  0.00	
     1.24000	    0.000	  0.00	  0.00	
     1.25000	    0.000	  0.00	  0.00	
     1.26000	    0.000	  0.00	  0.00	
     1.27000	    0.000	  0.00	  0.00	
     1.28000	    0.000	  0.00	  0.00	
     1.29000	    0.000	  0.00	  0.00	
     1.30000	    0.000	  0.00	  0.00	
     1.31000	    0.000	  0.00	  0.00	
     1.32000	    0.000	  0.00	  0.00	
     1.33000	    0.000	  0.00	  0.00	
     1.34000	    0.000	  0.00	  0.00	
     1.35000	    0.000	  0.00	  0.00	
     1.36000	    0.000	  0.00	  0.00	
     1.37000	    0.000	  0.00	  0.00	
     1.38000	    0.000	  0.00	  0.00	
     1.39000	    0.000	  0.00	  0.00	
     1.40000	    0.000	  0.00	  0.00	
     1.41000	    0.000	  0.00	  0.00	
     1.42000	    0.000	  0.00	  0.00	
     1.43000	    0.000	  0.00	  0.00	
     1.44000	    0.000	  0.00	  0.00	
     1.45000	    0.000	  0.00	  0.00	
     1.46000	    0.000	  0.00	  0.00	
     1.47000	    0.000	  0.00	  0.00	
     1.48000	    0.000	  0.00	  0.00	
     1.49000	    0.000	  0.00	  0.00	
     1.50000	    0.000	  0.00	  0.00	
     1.51000	    0.000	  0.00	  0.00	
     1.52000	    0.000	  0.00	  0.00	
     1.53000	    0.000	  0.00	  0.00	
     1.54000	    0.000	  0.00	  0.00	
     1.55000	    0.000	  0.00	  0.00	
     1.56000	    0.000	  0.00	  0.00	
     1.57000	    0.000	  0.00	  0.00	
     1.58000	    0.000	  0.00	  0.00	
     1.59000	    0.000	  0.00	  0.00	
     1.60000	    0.000	  0.00	  0.00	
     1.61000	    0.000	  0.00	  0.00	
     1.62000	    0.000	  0.00	  0.00	
     1.63000	    0.000	  0.00	  0.00	
     1.64000	    0.000	  0.00	  0.00	
     1.65000	    0.000	  0.00	  0.00	
     1.66000	    0.000	  0.00	  0.00	
     1.67000	    0.000	  0.00	  0.00	
     1.68000	    0.000	  0.00	  0.00	
     1.69000	    0.000	  0.00	  0.00	
     1.70000	    0.000	  0.00	  0.00	
     1.71000	    0.000	  0.00	  0.00	
     1.72000	    0.000	  0.00	  0.00	
     1.73000	    0.000	  0.00	  0.00	
     1.74000	    0.000	  0.00	  0.00	
     1.75000	    0.000	  0.00	  0.00	
     1.76000	    0.000	  0.00	  0.00	
     1.77000	    0.000	  0.00	  0.00	
     1.78000	    0.000	  0.00	  0.00	
     1.79000	    0.000	  0.00	  0.00	
     1.80000	    0.000	  0.00	  0.00	
     1.81000	    0.000	  0.00	  0.00	
     1.82000	    0.000	  0.00	  0.00	
     1.83000	    0.000	  0.00	  0.00	
     1.84000	    0.000	  0.00	  0.00	
     1.85000	    0.000	  0.00	  0.00	
     1.86000	    0.000	  0.00	  0.00	
     1.87000	    0.000	  0.00	  0.00	
     1.88000	    0.000	  0.00	  0.00	
     1.89000	    0.000	  0.00	  0.00	
     1.90000	    0.000	  0.00	  0.00	
     1.91000	    0.000	  0.00	  0.00	
     1.92000	    0.000	  0.00	  0.00	
     1.93000	    0.000	  0.00	  0.00	
     1.94000	    0.000	  0.00	  0.00	
     1.95000	    0.000	  0.00	  0.00	
     1.96000	    0.000	  0.00	  0.00	
     1.97000	    0.000	  0.00	  0.00	
     1.98000	    0.000	  0.00	  0.00	
     1.99000	    0.000	  0.00	  0.00	
     2.00000	    0.000	  0.00	  0.00	
     2.01000	    0.000	  0.00	  0.00	
     2.02000	    0.000	  0.00	  0.00	
     2.03000	    0.000	  0.00	  0.00	
     2.04000	    0.000	  0.00	  0.00	
     2.05000	    0.000	  0.00	  0.00	
     2.06000	    0.000	  0.00	  0.00	
     2.07000	    0.000	  0.00	  0.00	
     2.08000	    0.000	  0.00	  0.00	
     2.09000	    0.000	  0.00	  0.00	
     2.10000	    0.000	  0.00	  0.00	
     2.11000	    0.000	  0.00	  0.00	
     2.12000	    0.000	  0.00	  0.00	
     2.13000	    0.000	  0.00	  0.00	
     2.14000	    0.000	  0.00	  0.00	
     2.15000	    0.000	  0.00	  0.00	
     2.16000	    0.000	  0.00	  0.00	
     2.17000	    0.000	  0.00	  0.00	
     2.18000	    0.000	  0.00	  0.00	
     2.19000	    0.000	  0.00	  0.00	
     2.20000	    0.000	  0.00	  0.00	
     2.21000	    0.000	  0.00	  0.00	
     2.22000	    0.000	  0.00	  0.00	
     2.23000	    0.000	  0.00	  0.00	
     2.24000	    0.000	  0.00	  0.00	
     2.25000	    0.000	  0.00	  0.00	
     2.26000	    0.000	  0.00	  0.00	
     2.27000	    0.000	  0.00	  0.00	
     2.28000	    0.000	  0.00	  0.00	
     2.29000	    0.000	  0.00	  0.00	
     2.30000	    0.000	  0.00	  0.00	
     2.31000	    0.000	  0.00	  0.00	
     2.32000	    0.000	  0.00	  0.00	
     2.33000	    0.000	  0.00	  0.00	
     2.34000	    0.000	  0.00	  0.00	
     2.35000	    0.000	  0.00	  0.00	
     2.36000	    0.000	  0.00	  0.00	
     2.37000	    0.000	  0.00	  0.00	
     2.38000	    0.000	  0.00	  0.00	
     2.39000	    0.000	  0.00	  0.00	
     2.40000	    0.000	  0.00	  0.00	
     2.41000	    0.000	  0.00	  0.00	
     2.42000	    0.000	  0.00	  0.00	
     2.43000	    0.000	  0.00	  0.00	
     2.44000	    0.000	  0.00	  0.00	
     2.45000	    0.000	  0.00	  0.00	
     2.46000	    0.000	  0.00	  0.00	
     2.47000	    0.000	  0.00	  0.00	
     2.48000	    0.000	  0.00	  0.00	
     2.49000	    0.000	  0.00	  0.00	
     2.50000	    0.000	  0.00	  0.00	
     2.51000	    0.000	  0.00	  0.00	
     2.52000	    0.000	  0.00	  0.00	
     2.53000	    0.000	  0.00	  0.00	
     2.54000	    0.000	  0.00	  0.00	
     2.55000	    0.000	  0.00	  0.00	
     2.56000	    0.000	  0.00	  0.00	
     2.57000	    0.000	  0.00	  0.00	
     2.58000	    0.000	  0.00	  0.00	
     2.59000	    0.000	  0.00	  0.00	
     2.60000	    0.000	  0.00	  0.00	
     2.61000	    0.000	  0.00	  0.00	
     2.62000	    0.000	  0.00	  0.00	
     2.63000	    0.000	  0.00	  0.00	
     2.64000	    0.000	  0.00	  0.00	
     2.65000	    0.000	  0.00	  0.00	
     2.66000	    0.000	  0.00	  0.00	
     2.67000	    0.000	  0.00	  0.00	
     2.68000	    0.000	  0.00	  0.00	
     2.69000	    0.000	  0.00	  0.00	
     2.70000	    0.000	  0.00	  0.00	
     2.71000	    0.000	  0.00	  0.00	
     2.72000	    0.000	  0.00	  0.00	
     2.73000	    0.000	  0.00	  0.00	
     2.74000	    0.000	  0.00	  0.00	
     2.75000	    0.000	  0.00	  0.00	
     2.76000	    0.000	  0.00	  0.00	
     2.77000	    0.000	  0.00	  0.00	
     2.78000	    0.000	  0.00	  0.00	
     2.79000	    0.000	  0.00	  0.00	
     2.80000	    0.000	  0.00	  0.00	
     2.81000	    0.000	  0.00	  0.00	
     2.82000	    0.000	  0.00	  0.00	
     2.83000	    0.000	  0.00	  0.00	
     2.84000	    0.000	  0.00	  0.00	
     2.85000	    0.000	  0.00	  0.00	
     2.86000	    0.000	  0.00	  0.00	
     2.87000	    0.000	  0.00	  0.00	
     2.88000	    0.000	  0.00	  0.00	
     2.89000	    0.000	  0.00	  0.00	
     2.90000	    0.000	  0.00	  0.00	
     2.91000	    0.000	  0.00	  0.00	
     2.92000	    0.000	  0.00	  0.00	
     2.93000	    0.000	  0.00	  0.00	
     2.94000	    0.000	  0.00	  0.00	
     2.95000	    0.000	  0.00	  0.00	
     2.96000	    0.000	  0.00	  0.00	
     2.97000	    0.000	  0.00	  0.00	
     2.98000	    0.000	  0.00	  0.00	
     2.99000	    0.000	  0.00	  0.00	
     3.00000	    0.000	  0.00	  0.00	
     3.01000	    0.000	  0.00	  0.00	
     3.02000	    0.000	  0.00	  0.00	
     3.03000	    0.000	  0.00	  0.00	
     3.04000	    0.000	  0.00	  0.00	
     3.05000	    0.000	  0.00	  0.00	
     3.06000	    0.000	  0.00	  0.00	
     3.07000	    0.000	  0.00	  0.00	
     3.08000	    0.000	  0.00	  0.00	
     3.09000	    0.000	  0.00	  0.00	
     3.10000	    0.000	  0.00	  0.00	
     3.11000	    0.000	  0.00	  0.00	
     3.12000	    0.000	  0.00	  0.00	
     3.13000	    0.000	  0.00	  0.00	
     3.14000	    0.000	  0.00	  0.00	
     3.15000	    0.000	  0.00	  0.00	
     3.16000	    0.000	  0.00	  0.00	
     3.17000	    0.000	  0.00	  0.00	
     3.18000	    0.000	  0.00	  0.00	
     3.19000	    0.000	  0.00	  0.00	
     3.20000	    0.000	  0.00	  0.00	
     3.21000	    0.000	  0.00	  0.00	
     3.22000	    0.000	  0.00	  0.00	
     3.23000	    0.000	  0.00	  0.00	
     3.24000	    2.000	 85.00	 45.00	
     3.25000	    2.000	 85.00	 45.00	
     3.26000	    2.000	 85.00	 45.00	
     3.27000	    4.000	 85.00	 40.00	
     3.28000	    4.500	 85.00	 40.56	
     3.29000	    4.500	 85.00	 40.56	
     3.30000	    4.500	 85.00	 40.56	
     3.31000	    4.500	 85.00	 40.56	
     3.32000	    5.000	 85.00	 40.00	
     3.33000	    5.500	 85.00	 40.45	
     3.34000	    5.500	 85.00	 40.45	
     3.35000	    5.500	 85.00	 40.45	
     3.36000	    5.500	 85.00	 40.45	
     3.37000	    5.500	 85.00	 40.45	
     3.38000	    7.500	 82.33	 41.67	
     3.39000	    7.500	 82.33	 41.67	
     3.40000	    7.500	 82.33	 41.67	
     3.41000	    8.000	 82.50	 41.88	
     3.42000	    8.500	 82.06	 41.47	
     3.43000	    8.500	 82.06	 41.47	
     3.44000	    9.000	 82.22	 41.67	
     3.45000	    9.000	 82.22	 41.67	
     3.46000	    9.000	 82.22	 41.67	
     3.47000	    9.000	 82.22	 41.67	
     3.48000	   10.000	 82.50	 41.50	
     3.49000	   10.000	 82.50	 41.50	
     3.50000	   10.000	 82.50	 41.50	
     3.51000	   10.500	 82.14	 41.67	
     3.52000	   10.500	 82.14	 41.67	
     3.53000	   10.500	 82.14	 41.67	
     3.54000	   13.000	 84.23	 40.77	
     3.55000	   13.500	 83.89	 40.93	
     3.56000	   13.000	 84.23	 40.77	
     3.57000	   14.000	 83.93	 40.71	
     3.58000	   15.000	 84.33	 40.67	
     3.59000	   15.000	 84.33	 40.67	
     3.60000	   15.500	 84.35	 40.48	
     3.61000	   15.500	 84.35	 40.48	
     3.62000	   15.500	 84.35	 40.48	
     3.63000	   17.500	 83.29	 39.86	
     3.64000	   17.500	 83.29	 39.86	
     3.65000	   17.500	 83.29	 39.86	
     3.66000	   18.000	 83.33	 40.00	
     3.67000	   18.000	 83.33	 40.00	
     3.68000	   18.000	 83.33	 40.00	
     3.69000	   20.000	 83.50	 38.50	
     3.70000	   20.500	 83.78	 38.41	
     3.71000	   20.500	 83.78	 38.41	
     3.72000	   20.500	 83.78	 38.41	
     3.73000	   20.500	 83.78	 38.41	
     3.74000	   18.500	 83.65	 39.86	
     3.75000	   18.000	 83.33	 40.00	
     3.76000	   18.500	 83.65	 39.86	
     3.77000	   18.500	 83.65	 39.86	
     3.78000	   18.500	 83.65	 39.86	
     3.79000	   18.500	 83.11	 40.14	
     3.80000	   18.500	 83.11	 40.14	
     3.81000	   21.000	 83.57	 38.57	
     3.82000	   21.000	 83.57	 38.57	
     3.83000	   21.000	 83.57	 38.57	
     3.84000	   19.000	 83.42	 40.00	
     3.85000	   21.000	 83.57	 38.57	
     3.86000	   21.000	 83.57	 38.57	
     3.87000	   21.000	 83.57	 38.57	
     3.88000	   21.500	 83.37	 38.72	
     3.89000	   21.000	 83.57	 38.57	
     3.90000	   21.000	 83.57	 38.57	
     3.91000	   21.000	 83.57	 38.57	
     3.92000	   21.000	 83.57	 38.57	
     3.93000	   21.000	 83.57	 38.57	
     3.94000	   21.500	 83.60	 38.72	
     3.95000	   22.000	 83.41	 38.64	
     3.96000	   21.500	 83.37	 38.49	
     3.97000	   23.000	 83.48	 38.26	
     3.98000	   23.000	 83.48	 38.26	
     3.99000	   23.000	 83.48	 38.26	
     4.00000	   23.500	 83.30	 38.40	
     4.01000	   23.000	 83.48	 38.26	
     4.02000	   23.500	 83.30	 38.40	
     4.03000	   23.500	 83.51	 38.19	
     4.04000	   24.000	 83.33	 38.33	
     4.05000	   24.000	 83.33	 38.33	
     4.06000	   24.000	 83.33	 38.33	
     4.07000	   24.000	 83.33	 38.33	
     4.08000	   24.000	 83.33	 38.33	
     4.09000	   24.000	 83.33	 38.33	
     4.10000	   23.500	 83.51	 38.19	
     4.11000	   23.000	 83.48	 38.26	
     4.12000	   24.000	 83.75	 38.13	
     4.13000	   23.500	 83.51	 38.19	
     4.14000	   24.000	 83.75	 38.13	
     4.15000	   24.000	 83.75	 38.13	
     4.16000	   24.000	 83.75	 38.13	
     4.17000	   24.000	 83.75	 38.13	
     4.18000	   24.500	 83.78	 38.27	
     4.19000	   24.000	 83.75	 38.13	
     4.20000	   24.500	 83.57	 38.27	
     4.21000	   24.500	 83.78	 38.27	
     4.22000	   24.500	 83.78	 38.27	
     4.23000	   27.000	 84.44	 38.89	
     4.24000	   26.500	 84.62	 38.77	
     4.25000	   25.500	 83.82	 38.33	
     4.26000	   26.500	 84.62	 38.77	
     4.27000	   26.500	 84.62	 38.77	
     4.28000	   26.000	 84.62	 38.85	
     4.29000	   25.000	 83.60	 38.40	
     4.30000	   24.000	 83.33	 38.54	
     4.31000	   23.500	 83.30	 38.40	
     4.32000	   23.000	 83.48	 38.26	
     4.33000	   22.500	 83.22	 38.78	
     4.34000	   23.000	 83.26	 38.48	
     4.35000	   22.000	 83.41	 38.64	
     4.36000	   22.000	 83.41	 38.64	
     4.37000	   22.000	 83.41	 38.64	
     4.38000	   22.000	 82.95	 38.86	
     4.39000	   22.000	 82.95	 38.86	
     4.40000	   20.000	 82.75	 40.25	
     4.41000	   21.000	 82.86	 39.05	
     4.42000	   21.000	 83.10	 38.81	
     4.43000	   18.500	 82.57	 40.41	
     4.44000	   19.000	 82.37	 40.26	
     4.45000	   19.000	 82.37	 40.26	
     4.46000	   18.500	 82.30	 40.41	
     4.47000	   16.500	 80.76	 41.06	
     4.48000	   16.500	 80.76	 41.06	
     4.49000	   16.500	 80.45	 41.36	
     4.50000	   16.500	 80.45	 41.36	
     4.51000	   15.500	 80.48	 41.13	
     4.52000	   15.500	 80.48	 41.13	
     4.53000	   15.000	 80.67	 41.33	
     4.54000	   15.000	 80.67	 41.33	
     4.55000	   15.000	 80.67	 41.33	
     4.56000	   14.500	 80.52	 41.55	
     4.57000	   14.500	 80.52	 41.55	
     4.58000	   14.000	 80.36	 41.43	
     4.59000	   14.000	 80.36	 41.43	
     4.60000	   13.500	 80.19	 41.67	
     4.61000	   13.500	 80.19	 41.67	
     4.62000	   13.000	 80.00	 44.62	
     4.63000	   11.000	 80.91	 42.73	
     4.64000	   13.000	 80.00	 41.54	
     4.65000	   11.000	 80.91	 42.73	
     4.66000	   11.000	 80.91	 42.73	
     4.67000	   11.000	 80.91	 42.73	
     4.68000	   10.500	 80.71	 43.10	
     4.69000	   10.500	 80.71	 43.10	
     4.70000	   10.000	 78.50	 47.00	
     4.71000	    8.000	 79.38	 45.00	
     4.72000	    7.500	 79.00	 45.00	
     4.73000	    9.000	 78.33	 47.22	
     4.74000	    7.000	 79.29	 45.00	
     4.75000	    7.000	 79.29	 45.00	
     4.76000	    8.000	 78.13	 47.50	
     4.77000	    6.000	 79.17	 45.00	
     4.78000	    5.500	 78.64	 45.00	
     4.79000	    3.500	 75.00	 45.00	
     4.80000	    3.000	 75.00	 45.00	
     4.81000	    2.500	 75.00	 45.00	
     4.82000	    2.500	 75.00	 45.00	
     4.83000	    2.000	 75.00	 45.00	
     4.84000	    0.000	  0.00	  0.00	
     4.85000	    0.000	  0.00	  0.00	
     4.86000	    2.000	105.00	145.00	
     4.87000	    2.000	105.00	145.00	
     4.88000	    2.000	105.00	145.00	
     4.89000	    2.000	105.00	145.00	
     4.90000	    2.000	105.00	145.00	
     4.91000	    2.000	105.00	145.00	
     4.92000	    2.000	105.00	145.00	
     4.93000	    2.000	105.00	145.00	
     4.94000	    2.000	105.00	145.00	
     4.95000	    2.000	105.00	145.00	
     4.96000	    2.000	105.00	145.00	
     4.97000	    2.000	105.00	145.00	
     4.98000	    2.000	105.00	145.00	
     4.99000	    2.000	105.00	145.00	
     5.00000	    2.000	105.00	145.00	
     5.01000	    2.000	105.00	145.00	
     5.02000	    2.000	105.00	145.00	
     5.03000	    2.000	105.00	145.00	
     5.04000	    2.000	105.00	145.00	
     5.05000	    2.000	105.00	145.00	
     5.06000	    2.000	105.00	145.00	
     5.07000	    2.000	105.00	145.00	
     5.08000	    2.000	105.00	145.00	
     5.09000	    2.000	105.00	145.00	
     5.10000	    2.000	105.00	145.00	
     5.11000	    2.000	105.00	145.00	
     5.12000	    2.000	105.00	145.00	
     5.13000	    2.000	105.00	145.00	
     5.14000	    2.000	105.00	145.00	
     5.15000	    2.000	105.00	145.00	
     5.16000	    2.000	105.00	145.00	
     5.17000	    2.000	105.00	145.00	
     5.18000	    2.000	105.00	145.00	
     5.19000	    2.000	105.00	145.00	
     5.20000	    2.000	105.00	145.00	
     5.21000	    2.000	105.00	145.00	
     5.22000	    2.000	105.00	145.00	
     5.23000	    0.000	  0.00	  0.00	
     5.24000	    0.000	  0.00	  0.00	
     5.25000	    0.000	  0.00	  0.00	
     5.26000	    0.000	  0.00	  0.00	
     5.27000	    0.000	  0.00	  0.00	
     5.28000	    0.000	  0.00	  0.00	
     5.29000	    0.000	  0.00	  0.00	
     5.30000	    0.000	  0.00	  0.00	
     5.31000	    0.000	  0.00	  0.00	
     5.32000	    0.000	  0.00	  0.00	
     5.33000	    2.000	 85.00	 45.00	
     5.34000	    4.000	 80.00	 45.00	
     5.35000	    4.000	 80.00	 45.00	
     5.36000	    4.000	 80.00	 45.00	
     5.37000	    4.000	 80.00	 45.00	
     5.38000	    4.500	 80.56	 45.00	
     5.39000	    4.500	 80.56	 45.00	
     5.40000	    4.500	 80.56	 45.00	
     5.41000	    7.000	 78.57	 47.86	
     5.42000	    7.000	 78.57	 47.86	
     5.43000	    7.500	 79.00	 47.67	
     5.44000	    7.500	 79.00	 47.67	
     5.45000	    7.500	 79.00	 47.67	
     5.46000	    7.500	 79.00	 47.67	
     5.47000	    8.000	 78.75	 48.13	
     5.48000	    8.000	 78.75	 48.13	
     5.49000	    8.000	 78.75	 48.13	
     5.50000	    8.000	 78.75	 48.13	
     5.51000	    8.000	 78.75	 48.13	
     5.52000	    8.000	 78.75	 48.13	
     5.53000	    8.000	 78.75	 48.13	
     5.54000	    8.500	 78.53	 47.94	
     5.55000	    9.000	 78.89	 47.78	
     5.56000	    9.000	 78.89	 47.78	
     5.57000	    9.500	 78.68	 48.16	
     5.58000	   12.000	 80.00	 45.83	
     5.59000	   12.000	 80.00	 45.83	
     5.60000	   12.500	 79.80	 45.80	
     5.61000	   12.500	 79.80	 45.80	
     5.62000	   12.500	 79.80	 45.80	
     5.63000	   12.500	 79.80	 45.80	
     5.64000	   12.500	 79.80	 45.80	
     5.65000	   12.500	 79.80	 45.80	
     5.66000	   12.500	 79.80	 45.80	
     5.67000	   12.500	 79.80	 45.80	
     5.68000	   15.000	 79.33	 44.00	
     5.69000	   14.500	 80.52	 47.07	
     5.70000	   17.000	 80.00	 45.29	
     5.71000	   13.000	 80.00	 45.38	
     5.72000	   13.000	 80.00	 45.38	
     5.73000	   13.000	 80.00	 45.38	
     5.74000	   13.000	 80.00	 45.38	
     5.75000	   15.000	 80.67	 46.67	
     5.76000	   13.000	 80.00	 45.38	
     5.77000	   17.500	 80.14	 45.29	
     5.78000	   17.500	 80.14	 45.29	
     5.79000	   17.500	 80.14	 45.29	
     5.80000	   18.500	 80.14	 45.27	
     5.81000	   19.000	 80.26	 45.00	
     5.82000	   19.000	 80.26	 45.00	
     5.83000	   19.500	 80.13	 44.74	
     5.84000	   19.500	 80.13	 44.74	
     5.85000	   19.500	 80.13	 44.74	
     5.86000	   19.000	 80.26	 45.00	
     5.87000	   21.500	 81.51	 44.77	
     5.88000	   19.500	 80.13	 44.74	
     5.89000	   21.500	 81.51	 44.77	
     5.90000	   22.000	 81.59	 44.55	
     5.91000	   22.500	 81.67	 44.56	
     5.92000	   22.500	 81.67	 44.56	
     5.93000	   22.500	 81.67	 44.56	
     5.94000	   22.500	 81.67	 44.56	
     5.95000	   22.500	 81.67	 44.56	
     5.96000	   22.500	 81.67	 44.56	
     5.97000	   22.000	 81.82	 44.32	
     5.98000	   22.000	 81.82	 44.32	
     5.99000	   22.000	 81.82	 44.32	
     6.00000	   22.000	 81.82	 44.32	
     6.01000	   22.000	 82.73	 42.50	
     6.02000	   22.000	 81.82	 44.32	
     6.03000	   24.000	 82.92	 43.54	
     6.04000	   24.000	 82.92	 43.54	
     6.05000	   22.500	 82.78	 42.56	
     6.06000	   25.000	 83.40	 43.20	
     6.07000	   25.000	 84.20	 40.80	
     6.08000	   27.000	 84.26	 41.85	
     6.09000	   27.500	 84.45	 39.55	
     6.10000	   30.000	 84.50	 40.67	
     6.11000	   30.000	 84.50	 40.67	
     6.12000	   27.500	 84.45	 39.55	
     6.13000	   27.500	 84.45	 39.55	
     6.14000	   29.500	 85.17	 37.88	
     6.15000	   25.500	 85.20	 38.33	
     6.16000	   27.000	 85.74	 36.67	
     6.17000	   26.000	 85.00	 38.27	
     6.18000	   27.000	 85.74	 36.67	
     6.19000	   27.000	 85.37	 36.48	
     6.20000	   26.500	 85.57	 36.51	
     6.21000	   27.000	 85.37	 36.48	
     6.22000	   27.500	 85.55	 36.64	
     6.23000	   27.500	 85.55	 36.64	
     6.24000	   27.000	 85.37	 36.48	
     6.25000	   27.500	 85.18	 36.64	
     6.26000	   25.500	 84.41	 36.76	
     6.27000	   25.000	 84.60	 36.60	
     6.28000	   25.000	 84.60	 36.60	
     6.29000	   25.000	 84.60	 36.60	
     6.30000	   25.000	 84.60	 36.60	
     6.31000	   23.000	 83.48	 35.87	
     6.32000	   25.500	 84.41	 36.37	
     6.33000	   25.000	 84.40	 36.60	
     6.34000	   25.500	 84.41	 36.37	
     6.35000	   25.500	 84.41	 35.59	
     6.36000	   26.000	 84.42	 35.58	
     6.37000	   26.000	 84.42	 35.58	
     6.38000	   26.000	 84.42	 35.58	
     6.39000	   26.000	 84.42	 35.58	
     6.40000	   26.000	 84.42	 35.58	
     6.41000	   28.000	 83.04	 36.25	
     6.42000	   26.000	 84.42	 35.58	
     6.43000	   28.000	 83.04	 36.25	
     6.44000	   26.000	 84.42	 35.58	
     6.45000	   30.000	 84.50	 43.50	
     6.46000	   26.500	 84.25	 35.57	
     6.47000	   28.500	 85.70	 43.25	
     6.48000	   32.500	 85.00	 49.62	
     6.49000	   30.500	 86.48	 43.52	
     6.50000	   31.000	 86.61	 43.39	
     6.51000	   29.000	 86.03	 43.28	
     6.52000	   30.500	 86.80	 43.36	
     6.53000	   26.500	 84.81	 35.57	
     6.54000	   28.500	 85.53	 36.23	
     6.55000	   28.000	 85.54	 36.07	
     6.56000	   28.000	 85.54	 36.07	
     6.57000	   25.500	 84.61	 35.39	
     6.58000	   25.500	 84.61	 35.39	
     6.59000	   27.500	 85.36	 36.09	
     6.60000	   25.000	 84.60	 35.20	
     6.61000	   24.500	 84.80	 35.00	
     6.62000	   24.000	 84.79	 35.00	
     6.63000	   24.000	 84.58	 35.42	
     6.64000	   24.000	 84.79	 35.00	
     6.65000	   23.500	 84.79	 35.21	
     6.66000	   21.500	 83.84	 36.16	
     6.67000	   20.000	 82.50	 38.50	
     6.68000	   21.500	 83.84	 36.16	
     6.69000	   21.500	 83.84	 36.16	
     6.70000	   23.500	 84.79	 35.21	
     6.71000	   21.500	 83.84	 36.16	
     6.72000	   23.500	 84.79	 35.21	
     6.73000	   21.500	 83.84	 36.16	
     6.74000	   23.500	 84.79	 35.21	
     6.75000	   19.500	 82.69	 36.28	
     6.76000	   19.500	 82.69	 36.28	
     6.77000	   21.500	 83.84	 36.16	
     6.78000	   21.500	 83.84	 36.16	
     6.79000	   21.500	 83.84	 36.16	
     6.80000	   21.500	 83.84	 36.16	
     6.81000	   24.500	 84.59	 35.20	
     6.82000	   26.500	 85.38	 43.49	
     6.83000	   26.000	 85.58	 43.46	
     6.84000	   27.500	 85.36	 43.36	
     6.85000	   27.500	 85.36	 43.36	
     6.86000	   29.500	 86.69	 50.25	
     6.87000	   30.000	 85.83	 43.33	
     6.88000	   32.000	 87.03	 49.69	
     6.89000	   32.500	 87.00	 49.62	
     6.90000	   33.500	 86.94	 49.33	
     6.91000	   33.500	 86.94	 49.33	
     6.92000	   33.500	 86.94	 49.33	
     6.93000	   34.500	 86.88	 48.91	
     6.94000	   36.500	 85.68	 48.70	
     6.95000	   35.500	 86.69	 48.52	
     6.96000	   36.000	 86.81	 48.33	
     6.97000	   38.500	 85.78	 48.12	
     6.98000	   40.500	 86.23	 52.41	
     6.99000	   40.500	 86.23	 52.41	
     7.00000	   41.000	 86.34	 53.54	
     7.01000	   38.500	 87.34	 52.79	
     7.02000	   41.000	 86.22	 52.20	
     7.03000	   41.500	 86.33	 53.31	
     7.04000	   43.500	 86.26	 51.55	
     7.05000	   41.500	 86.33	 53.31	
     7.06000	   44.000	 86.25	 51.48	
     7.07000	   45.500	 87.09	 55.22	
     7.08000	   44.000	 87.16	 56.93	
     7.09000	   42.000	 86.31	 53.21	
     7.10000	   46.000	 87.07	 55.11	
     7.11000	   46.000	 87.28	 56.20	
     7.12000	   44.500	 87.36	 57.92	
     7.13000	   44.000	 87.39	 58.07	
     7.14000	   45.000	 87.44	 58.78	
     7.15000	   45.000	 87.44	 58.78	
     7.16000	   45.000	 87.44	 58.78	
     7.17000	   45.000	 87.44	 58.78	
     7.18000	   45.500	 87.64	 59.73	
     7.19000	   46.000	 87.50	 59.57	
     7.20000	   46.000	 87.50	 59.57	
     7.21000	   46.000	 87.50	 59.57	
     7.22000	   46.000	 87.50	 59.57	
     7.23000	   48.000	 87.40	 57.71	
     7.24000	   46.000	 87.50	 59.57	
     7.25000	   46.000	 87.50	 59.57	
     7.26000	   46.000	 87.50	 59.57	
     7.27000	   48.000	 87.40	 57.71	
     7.28000	   46.000	 87.50	 59.57	
     7.29000	   50.000	 87.30	 61.20	
     7.30000	   48.000	 87.40	 57.71	
     7.31000	   46.000	 87.50	 59.57	
     7.32000	   47.500	 87.11	 59.11	
     7.33000	   47.500	 87.42	 60.05	
     7.34000	   50.500	 87.28	 58.96	
     7.35000	   52.500	 87.00	 61.19	
     7.36000	   51.000	 87.16	 58.73	
     7.37000	   54.000	 87.22	 61.48	
     7.38000	   54.000	 87.22	 61.48	
     7.39000	   54.500	 87.57	 60.41	
     7.40000	   56.000	 87.50	 63.75	
     7.41000	   55.000	 87.73	 61.18	
     7.42000	   58.000	 87.76	 64.48	
     7.43000	   58.000	 87.76	 64.48	
     7.44000	   59.000	 87.63	 64.07	
     7.45000	   59.000	 87.63	 64.07	
     7.46000	   59.000	 87.63	 64.07	
     7.47000	   61.500	 87.60	 65.81	
     7.48000	   60.000	 87.75	 64.50	
     7.49000	   62.500	 87.72	 67.00	
     7.50000	   62.000	 87.66	 66.45	
     7.51000	   61.000	 87.79	 64.92	
     7.52000	   63.500	 87.60	 66.65	
     7.53000	   63.500	 87.83	 67.44	
     7.54000	   65.000	 87.69	 67.62	
     7.55000	   65.000	 87.69	 67.62	
     7.56000	   65.500	 87.82	 68.05	
     7.57000	   66.500	 87.93	 69.21	
     7.58000	   67.500	 87.96	 69.30	
     7.59000	   67.500	 87.96	 69.30	
     7.60000	   68.000	 88.01	 68.90	
     7.61000	   68.000	 87.87	 69.12	
     7.62000	   69.500	 87.95	 69.03	
     7.63000	   75.500	 86.85	 68.71	
     7.64000	   70.000	 87.86	 68.00	
     7.65000	   74.000	 87.43	 69.46	
     7.66000	   77.500	 88.03	 68.16	
     7.67000	   77.500	 88.03	 68.16	
     7.68000	   80.000	 88.13	 69.06	
     7.69000	   81.000	 88.09	 68.70	
     7.70000	   82.000	 88.17	 69.51	
     7.71000	   83.000	 87.95	 69.22	
     7.72000	   83.000	 87.95	 69.22	
     7.73000	   85.500	 87.40	 68.22	
     7.74000	   89.000	 87.42	 69.72	
     7.75000	   89.000	 87.42	 69.72	
     7.76000	   92.500	 87.49	 69.22	
     7.77000	   93.000	 87.42	 69.68	
     7.78000	   94.500	 87.96	 69.13	
     7.79000	   94.500	 87.43	 69.66	
     7.80000	   95.500	 87.36	 69.97	
     7.81000	   93.500	 87.67	 71.26	
     7.82000	   99.000	 87.98	 69.34	
     7.83000	  100.000	 87.95	 69.55	
     7.84000	  100.500	 87.89	 69.48	
     7.85000	  102.000	 87.94	 69.95	
     7.86000	  101.000	 88.02	 70.25	
     7.87000	  103.000	 87.91	 70.19	
     7.88000	  103.000	 88.01	 70.68	
     7.89000	  103.500	 87.37	 72.83	
     7.90000	  105.500	 87.80	 72.20	
     7.91000	  104.000	 87.55	 74.13	
     7.92000	  105.500	 87.32	 73.01	
     7.93000	  103.500	 87.51	 74.42	
     7.94000	  103.000	 87.52	 74.22	
     7.95000	  104.500	 87.58	 73.95	
     7.96000	  103.000	 87.52	 74.22	
     7.97000	  103.500	 87.42	 74.08	
     7.98000	  102.500	 87.73	 73.29	
     7.99000	  101.500	 87.66	 73.28	
     8.00000	  105.000	 87.48	 74.29	
     8.01000	  107.000	 87.80	 73.18	
     8.02000	  107.000	 87.94	 73.13	
     8.03000	  110.500	 87.85	 74.91	
     8.04000	  112.000	 87.72	 74.87	
     8.05000	  112.500	 87.71	 75.09	
     8.06000	  113.500	 87.78	 75.66	
     8.07000	  114.500	 87.79	 74.91	
     8.08000	  118.000	 87.58	 76.36	
     8.09000	  118.500	 87.83	 74.45	
     8.10000	  122.000	 87.54	 75.25	
     8.11000	  126.500	 87.29	 75.16	
     8.12000	  129.500	 87.28	 75.35	
     8.13000	  131.500	 87.43	 75.53	
     8.14000	  136.000	 87.57	 74.49	
     8.15000	  139.000	 87.59	 74.28	
     8.16000	  139.500	 87.58	 74.18	
     8.17000	  143.500	 87.72	 73.29	
     8.18000	  149.000	 87.48	 73.96	
     8.19000	  150.000	 87.67	 73.23	
     8.20000	  155.000	 87.29	 73.74	
     8.21000	  156.000	 87.15	 73.11	
     8.22000	  159.500	 87.23	 73.34	
     8.23000	  164.500	 87.28	 74.12	
     8.24000	  167.000	 87.46	 75.00	
     8.25000	  169.000	 87.43	 75.30	
     8.26000	  170.500	 87.40	 75.82	
     8.27000	  173.500	 87.51	 75.63	
     8.28000	  176.000	 87.47	 76.45	
     8.29000	  176.500	 87.52	 76.27	
     8.30000	  182.000	 87.61	 76.70	
     8.31000	  182.000	 87.64	 77.25	
     8.32000	  187.500	 87.64	 78.87	
     8.33000	  185.000	 87.86	 79.24	
     8.34000	  186.500	 87.92	 79.29	
     8.35000	  185.500	 87.86	 79.77	
     8.36000	  185.000	 87.89	 80.43	
     8.37000	  185.000	 87.97	 80.73	
     8.38000	  182.500	 87.99	 80.92	
     8.39000	  183.500	 87.81	 81.57	
     8.40000	  182.500	 87.71	 81.60	
     8.41000	  181.500	 87.84	 81.86	
     8.42000	  180.000	 87.75	 81.44	
     8.43000	  176.000	 87.95	 81.28	
     8.44000	  179.000	 87.77	 81.73	
     8.45000	  175.500	 87.82	 82.81	
     8.46000	  173.000	 88.06	 82.75	
     8.47000	  173.500	 87.74	 82.64	
     8.48000	  173.500	 87.65	 82.49	
     8.49000	  170.000	 88.06	 82.09	
     8.50000	  170.500	 87.84	 83.45	
     8.51000	  169.500	 87.89	 83.70	
     8.52000	  165.000	 87.76	 81.00	
     8.53000	  158.500	 87.84	 82.76	
     8.54000	  159.000	 87.92	 82.26	
     8.55000	  155.500	 87.83	 83.10	
     8.56000	  154.000	 87.82	 83.02	
     8.57000	  158.000	 87.63	 82.59	
     8.58000	  148.500	 87.76	 82.91	
     8.59000	  147.500	 87.78	 83.14	
     8.60000	  147.000	 87.76	 83.13	
     8.61000	  144.500	 87.56	 84.45	
     8.62000	  144.500	 87.66	 83.27	
     8.63000	  140.500	 87.46	 84.11	
     8.64000	  139.500	 87.44	 84.46	
     8.65000	  137.000	 87.37	 85.07	
     8.66000	  134.000	 87.43	 84.59	
     8.67000	  132.000	 87.35	 84.62	
     8.68000	  130.000	 87.35	 84.62	
     8.69000	  129.500	 87.36	 84.38	
     8.70000	  124.500	 87.21	 83.88	
     8.71000	  122.000	 87.25	 84.43	
     8.72000	  121.000	 87.27	 84.92	
     8.73000	  115.000	 87.26	 85.22	
     8.74000	  108.000	 87.45	 85.65	
     8.75000	  103.000	 87.43	 85.73	
     8.76000	   91.500	 87.46	 88.77	
     8.77000	   82.000	 88.23	 89.88	
     8.78000	   77.500	 87.77	 95.06	
     8.79000	   69.500	 87.73	101.47	
     8.80000	   71.500	 87.80	102.34	
     8.81000	   78.000	 87.63	105.45	
     8.82000	  103.500	 87.71	100.31	
     8.83000	  139.000	 87.27	 95.68	
     8.84000	  158.000	 86.71	 82.82	
     8.85000	  208.000	 87.16	 78.37	
     8.86000	  249.000	 86.99	 77.33	
     8.87000	  278.000	 87.00	 76.87	
     8.88000	  297.000	 86.94	 76.08	
     8.89000	  307.000	 86.81	 75.88	
     8.90000	  307.500	 86.48	 75.31	
     8.91000	  290.500	 86.76	 75.83	
     8.92000	  270.500	 86.65	 76.96	
     8.93000	  245.500	 86.57	 77.20	
     8.94000	  220.000	 86.52	 78.05	
     8.95000	  198.000	 86.26	 78.89	
     8.96000	  178.000	 86.15	 79.72	
     8.97000	  162.500	 85.86	 80.69	
     8.98000	  152.500	 85.49	 80.61	
     8.99000	  144.500	 85.59	 80.26	
     9.00000	  142.500	 85.42	 79.95	
     9.01000	  139.000	 85.61	 78.56	
     9.02000	  133.000	 85.79	 76.17	
     9.03000	  132.500	 85.42	 76.13	
     9.04000	  125.500	 86.16	 76.04	
     9.05000	  117.500	 85.60	 73.85	
     9.06000	  113.500	 85.48	 73.06	
     9.07000	  109.500	 86.05	 72.26	
     9.08000	  107.500	 86.07	 71.65	
     9.09000	  106.500	 85.99	 71.57	
     9.10000	  109.000	 85.37	 71.19	
     9.11000	  106.500	 85.75	 69.84	
     9.12000	  111.500	 85.31	 70.78	
     9.13000	  111.500	 85.45	 71.23	
     9.14000	  110.000	 85.77	 70.09	
     9.15000	  113.000	 85.44	 71.59	
     9.16000	  116.000	 85.04	 71.38	
     9.17000	  117.500	 85.00	 71.30	
     9.18000	  118.500	 84.96	 71.08	
     9.19000	  119.000	 85.34	 69.33	
     9.20000	  119.500	 85.25	 70.36	
     9.21000	  120.500	 84.88	 70.44	
     9.22000	  115.000	 85.61	 69.83	
     9.23000	  113.000	 85.84	 69.96	
     9.24000	  111.000	 85.81	 70.09	
     9.25000	  106.000	 85.90	 68.16	
     9.26000	  102.000	 86.18	 66.91	
     9.27000	   97.500	 86.08	 66.49	
     9.28000	   95.500	 85.99	 66.10	
     9.29000	   90.500	 85.94	 64.45	
     9.30000	   82.000	 86.04	 62.74	
     9.31000	   79.000	 85.95	 62.09	
     9.32000	   76.500	 85.85	 61.47	
     9.33000	   74.500	 85.87	 61.38	
     9.34000	   69.500	 85.79	 60.40	
     9.35000	   67.500	 85.89	 60.41	
     9.36000	   62.500	 85.80	 60.92	
     9.37000	   53.000	 85.66	 57.17	
     9.38000	   48.500	 86.03	 59.02	
     9.39000	   43.500	 86.38	 59.37	
     9.40000	   37.500	 85.80	 59.00	
     9.41000	   33.000	 84.70	 58.79	
     9.42000	   40.500	 87.10	 77.59	
     9.43000	   38.500	 87.08	 79.68	
     9.44000	   34.000	 87.06	 81.18	
     9.45000	   21.500	 83.60	 63.14	
     9.46000	   28.000	 86.96	 86.07	
     9.47000	   26.000	 86.54	 85.58	
     9.48000	   21.000	 88.10	 81.19	
     9.49000	   15.500	 85.32	 65.00	
     9.50000	   12.000	 82.50	 56.67	
     9.51000	   11.500	 82.83	 57.17	
     9.52000	    5.500	 80.45	 45.00	
     9.53000	    7.000	 84.29	 73.57	
     9.54000	    6.000	 85.00	 78.33	
     9.55000	    2.000	 75.00	 45.00	
     9.56000	    0.000	  0.00	  0.00	
     9.57000	    0.000	  0.00	  0.00	
     9.58000	    0.000	  0.00	  0.00	
     9.59000	    0.000	  0.00	  0.00	
     9.60000	    0.000	  0.00	  0.00	
     9.61000	    0.000	  0.00	  0.00	
     9.62000	    0.000	  0.00	  0.00	
     9.63000	    0.000	  0.00	  0.00	
     9.64000	    0.000	  0.00	  0.00	
     9.65000	    0.000	  0.00	  0.00	
     9.66000	    0.000	  0.00	  0.00	
     9.67000	    0.000	  0.00	  0.00	
     9.68000	    0.000	  0.00	  0.00	
     9.69000	    0.000	  0.00	  0.00	
     9.70000	    0.000	  0.00	  0.00	
     9.71000	    0.000	  0.00	  0.00	
     9.72000	    0.000	  0.00	  0.00	
     9.73000	    0.000	  0.00	  0.00	
     9.74000	    0.000	  0.00	  0.00	
     9.75000	    0.000	  0.00	  0.00	
     9.76000	    0.000	  0.00	  0.00	
     9.77000	    0.000	  0.00	  0.00	
     9.78000	    0.000	  0.00	  0.00	
     9.79000	    0.000	  0.00	  0.00	
     9.80000	    0.000	  0.00	  0.00	
     9.81000	    0.000	  0.00	  0.00	
     9.82000	    0.000	  0.00	  0.00	
     9.83000	    0.000	  0.00	  0.00	
     9.84000	    0.000	  0.00	  0.00	
     9.85000	    0.000	  0.00	  0.00	
     9.86000	    0.000	  0.00	  0.00	
     9.87000	    0.000	  0.00	  0.00	
     9.88000	    0.000	  0.00	  0.00	
     9.89000	    0.000	  0.00	  0.00	
     9.90000	    0.000	  0.00	  0.00	
     9.91000	    0.000	  0.00	  0.00	
     9.92000	    0.000	  0.00	  0.00	
     9.93000	    0.000	  0.00	  0.00	
     9.94000	    0.000	  0.00	  0.00	
     9.95000	    0.000	  0.00	  0.00	
     9.96000	    0.000	  0.00	  0.00	
     9.97000	    0.000	  0.00	  0.00	
     9.98000	    0.000	  0.00	  0.00	
     9.99000	    0.000	  0.00	  0.00	
    10.00000	    0.000	  0.00	  0.00	
    10.01000	    0.000	  0.00	  0.00	
    10.02000	    0.000	  0.00	  0.00	
    10.03000	    0.000	  0.00	  0.00	
    10.04000	    0.000	  0.00	  0.00	
    10.05000	    0.000	  0.00	  0.00	
    10.06000	    0.000	  0.00	  0.00	
    10.07000	    0.000	  0.00	  0.00	
    10.08000	    0.000	  0.00	  0.00	
    10.09000	    0.000	  0.00	  0.00	
    10.10000	    0.000	  0.00	  0.00	
    10.11000	    0.000	  0.00	  0.00	
    10.12000	    0.000	  0.00	  0.00	
    10.13000	    0.000	  0.00	  0.00	
    10.14000	    0.000	  0.00	  0.00	
    10.15000	    0.000	  0.00	  0.00	
    10.16000	    0.000	  0.00	  0.00	
    10.17000	    0.000	  0.00	  0.00	
    10.18000	    0.000	  0.00	  0.00	
    10.19000	    0.000	  0.00	  0.00	
    10.20000	    0.000	  0.00	  0.00	
    10.21000	    0.000	  0.00	  0.00	
    10.22000	    0.000	  0.00	  0.00	
    10.23000	    0.000	  0.00	  0.00	
    10.24000	    0.000	  0.00	  0.00	
    10.25000	    0.000	  0.00	  0.00	
    10.26000	    0.000	  0.00	  0.00	
    10.27000	    0.000	  0.00	  0.00	
    10.28000	    0.000	  0.00	  0.00	
    10.29000	    0.000	  0.00	  0.00	
    10.30000	    0.000	  0.00	  0.00	
    10.31000	    0.000	  0.00	  0.00	
    10.32000	    0.000	  0.00	  0.00	
    10.33000	    0.000	  0.00	  0.00	
    10.34000	    0.000	  0.00	  0.00	
    10.35000	    0.000	  0.00	  0.00	
    10.36000	    0.000	  0.00	  0.00	
    10.37000	    0.000	  0.00	  0.00	
    10.38000	    0.000	  0.00	  0.00	
    10.39000	    0.000	  0.00	  0.00	
    10.40000	    0.000	  0.00	  0.00	
    10.41000	    0.000	  0.00	  0.00	
    10.42000	    0.000	  0.00	  0.00	
    10.43000	    0.000	  0.00	  0.00	
    10.44000	    0.000	  0.00	  0.00	
    10.45000	    0.000	  0.00	  0.00	
    10.46000	    0.000	  0.00	  0.00	
    10.47000	    0.000	  0.00	  0.00	
    10.48000	    0.000	  0.00	  0.00	
    10.49000	    0.000	  0.00	  0.00	
    10.50000	    0.000	  0.00	  0.00	
    10.51000	    0.000	  0.00	  0.00	
    10.52000	    0.000	  0.00	  0.00	
    10.53000	    0.000	  0.00	  0.00	
    10.54000	    0.000	  0.00	  0.00	
    10.55000	    0.000	  0.00	  0.00	
    10.56000	    0.000	  0.00	  0.00	
    10.57000	    0.000	  0.00	  0.00	
    10.58000	    0.000	  0.00	  0.00	
    10.59000	    0.000	  0.00	  0.00	
    10.60000	    0.000	  0.00	  0.00	
    10.61000	    0.000	  0.00	  0.00	
    10.62000	    0.000	  0.00	  0.00	
    10.63000	    0.000	  0.00	  0.00	
    10.64000	    0.000	  0.00	  0.00	
    10.65000	    0.000	  0.00	  0.00	
    10.66000	    0.000	  0.00	  0.00	
    10.67000	    0.000	  0.00	  0.00	
    10.68000	    0.000	  0.00	  0.00	
    10.69000	    0.000	  0.00	  0.00	
    10.70000	    0.000	  0.00	  0.00	
    10.71000	    0.000	  0.00	  0.00	
    10.72000	    0.000	  0.00	  0.00	
    10.73000	    0.000	  0.00	  0.00	
    10.74000	    0.000	  0.00	  0.00	
    10.75000	    0.000	  0.00	  0.00	
    10.76000	    0.000	  0.00	  0.00	
    10.77000	    0.000	  0.00	  0.00	
    10.78000	    0.000	  0.00	  0.00	
    10.79000	    0.000	  0.00	  0.00	
    10.80000	    0.000	  0.00	  0.00	
    10.81000	    0.000	  0.00	  0.00	
    10.82000	    0.000	  0.00	  0.00	
    10.83000	    0.000	  0.00	  0.00	
    10.84000	    0.000	  0.00	  0.00	
    10.85000	    0.000	  0.00	  0.00	
    10.86000	    0.000	  0.00	  0.00	
    10.87000	    0.000	  0.00	  0.00	
    10.88000	    0.000	  0.00	  0.00	
    10.89000	    0.000	  0.00	  0.00	
    10.90000	    0.000	  0.00	  0.00	
    10.91000	    0.000	  0.00	  0.00	
    10.92000	    0.000	  0.00	  0.00	
    10.93000	    0.000	  0.00	  0.00	
    10.94000	    0.000	  0.00	  0.00	
    10.95000	    0.000	  0.00	  0.00	
    10.96000	    0.000	  0.00	  0.00	
    10.97000	    0.000	  0.00	  0.00	
    10.98000	    0.000	  0.00	  0.00	
    10.99000	    0.000	  0.00	  0.00	
    11.00000	    0.000	  0.00	  0.00	
    11.01000	    0.000	  0.00	  0.00	
    11.02000	    0.000	  0.00	  0.00	
    11.03000	    0.000	  0.00	  0.00	
    11.04000	    0.000	  0.00	  0.00	
    11.05000	    0.000	  0.00	  0.00	
    11.06000	    0.000	  0.00	  0.00	
    11.07000	    0.000	  0.00	  0.00	
    11.08000	    0.000	  0.00	  0.00	
    11.09000	    0.000	  0.00	  0.00	
    11.10000	    0.000	  0.00	  0.00	
    11.11000	    0.000	  0.00	  0.00	
    11.12000	    0.000	  0.00	  0.00	
    11.13000	    0.000	  0.00	  0.00	
    11.14000	    0.000	  0.00	  0.00	
    11.15000	    0.000	  0.00	  0.00	
    11.16000	    0.000	  0.00	  0.00	
    11.17000	    0.000	  0.00	  0.00	
    11.18000	    0.000	  0.00	  0.00	
    11.19000	    0.000	  0.00	  0.00	
    11.20000	    0.000	  0.00	  0.00	
    11.21000	    0.000	  0.00	  0.00	
    11.22000	    0.000	  0.00	  0.00	
    11.23000	    0.000	  0.00	  0.00	
    11.24000	    0.000	  0.00	  0.00	
    11.25000	    0.000	  0.00	  0.00	
    11.26000	    0.000	  0.00	  0.00	
    11.27000	    0.000	  0.00	  0.00	
    11.28000	    0.000	  0.00	  0.00	
    11.29000	    0.000	  0.00	  0.00	
    11.30000	    0.000	  0.00	  0.00	
    11.31000	    0.000	  0.00	  0.00	
    11.32000	    0.000	  0.00	  0.00	
    11.33000	    0.000	  0.00	  0.00	
    11.34000	    0.000	  0.00	  0.00	
    11.35000	    0.000	  0.00	  0.00	
    11.36000	    0.000	  0.00	  0.00	
