file name:  S2128_09_1_2_MPa_PXF440_220809_204.mat	date/time  02.09.22 11.45
sensor type:  s2128_09_1_2_mpa_pxf440_220809 
force time integral[N*s]:      2011.110
pressure time integral [kPa*s]:     1869.600
total time [secs]:  18.640	time per frame [secs]:  0.01000	scanning rate [Hz]:   100


time[secs]    	force[N]   	x[mm]     	y[mm] 	

     0.01000	    0.000	  0.00	  0.00	
     0.02000	    0.000	  0.00	  0.00	
     0.03000	    0.000	  0.00	  0.00	
     0.04000	    0.000	  0.00	  0.00	
     0.05000	    0.000	  0.00	  0.00	
     0.06000	    0.000	  0.00	  0.00	
     0.07000	    0.000	  0.00	  0.00	
     0.08000	    0.000	  0.00	  0.00	
     0.09000	    0.000	  0.00	  0.00	
     0.10000	    0.000	  0.00	  0.00	
     0.11000	    0.000	  0.00	  0.00	
     0.12000	    0.000	  0.00	  0.00	
     0.13000	    0.000	  0.00	  0.00	
     0.14000	    0.000	  0.00	  0.00	
     0.15000	    0.000	  0.00	  0.00	
     0.16000	    0.000	  0.00	  0.00	
     0.17000	    0.000	  0.00	  0.00	
     0.18000	    0.000	  0.00	  0.00	
     0.19000	    0.000	  0.00	  0.00	
     0.20000	    0.000	  0.00	  0.00	
     0.21000	    0.000	  0.00	  0.00	
     0.22000	    0.000	  0.00	  0.00	
     0.23000	    0.000	  0.00	  0.00	
     0.24000	    0.000	  0.00	  0.00	
     0.25000	    0.000	  0.00	  0.00	
     0.26000	    0.000	  0.00	  0.00	
     0.27000	    0.000	  0.00	  0.00	
     0.28000	    0.000	  0.00	  0.00	
     0.29000	    0.000	  0.00	  0.00	
     0.30000	    0.000	  0.00	  0.00	
     0.31000	    0.000	  0.00	  0.00	
     0.32000	    0.000	  0.00	  0.00	
     0.33000	    0.000	  0.00	  0.00	
     0.34000	    0.000	  0.00	  0.00	
     0.35000	    0.000	  0.00	  0.00	
     0.36000	    0.000	  0.00	  0.00	
     0.37000	    0.000	  0.00	  0.00	
     0.38000	    0.000	  0.00	  0.00	
     0.39000	    0.000	  0.00	  0.00	
     0.40000	    0.000	  0.00	  0.00	
     0.41000	    0.000	  0.00	  0.00	
     0.42000	    0.000	  0.00	  0.00	
     0.43000	    0.000	  0.00	  0.00	
     0.44000	    0.000	  0.00	  0.00	
     0.45000	    0.000	  0.00	  0.00	
     0.46000	    0.000	  0.00	  0.00	
     0.47000	    0.000	  0.00	  0.00	
     0.48000	    0.000	  0.00	  0.00	
     0.49000	    0.000	  0.00	  0.00	
     0.50000	    0.000	  0.00	  0.00	
     0.51000	    0.000	  0.00	  0.00	
     0.52000	    0.000	  0.00	  0.00	
     0.53000	    0.000	  0.00	  0.00	
     0.54000	    0.000	  0.00	  0.00	
     0.55000	    0.000	  0.00	  0.00	
     0.56000	    0.000	  0.00	  0.00	
     0.57000	    0.000	  0.00	  0.00	
     0.58000	    0.000	  0.00	  0.00	
     0.59000	    0.000	  0.00	  0.00	
     0.60000	    0.000	  0.00	  0.00	
     0.61000	    0.000	  0.00	  0.00	
     0.62000	    0.000	  0.00	  0.00	
     0.63000	    0.000	  0.00	  0.00	
     0.64000	    0.000	  0.00	  0.00	
     0.65000	    0.000	  0.00	  0.00	
     0.66000	    0.000	  0.00	  0.00	
     0.67000	    0.000	  0.00	  0.00	
     0.68000	    0.000	  0.00	  0.00	
     0.69000	    0.000	  0.00	  0.00	
     0.70000	    0.000	  0.00	  0.00	
     0.71000	    0.000	  0.00	  0.00	
     0.72000	    0.000	  0.00	  0.00	
     0.73000	    0.000	  0.00	  0.00	
     0.74000	    0.000	  0.00	  0.00	
     0.75000	    0.000	  0.00	  0.00	
     0.76000	    0.000	  0.00	  0.00	
     0.77000	    0.000	  0.00	  0.00	
     0.78000	    0.000	  0.00	  0.00	
     0.79000	    0.000	  0.00	  0.00	
     0.80000	    0.000	  0.00	  0.00	
     0.81000	    0.000	  0.00	  0.00	
     0.82000	    0.000	  0.00	  0.00	
     0.83000	    0.000	  0.00	  0.00	
     0.84000	    0.000	  0.00	  0.00	
     0.85000	    0.000	  0.00	  0.00	
     0.86000	    0.000	  0.00	  0.00	
     0.87000	    0.000	  0.00	  0.00	
     0.88000	    0.000	  0.00	  0.00	
     0.89000	    0.000	  0.00	  0.00	
     0.90000	    0.000	  0.00	  0.00	
     0.91000	    0.000	  0.00	  0.00	
     0.92000	    0.000	  0.00	  0.00	
     0.93000	    0.000	  0.00	  0.00	
     0.94000	    0.000	  0.00	  0.00	
     0.95000	    0.000	  0.00	  0.00	
     0.96000	    0.000	  0.00	  0.00	
     0.97000	    0.000	  0.00	  0.00	
     0.98000	    0.000	  0.00	  0.00	
     0.99000	    0.000	  0.00	  0.00	
     1.00000	    0.000	  0.00	  0.00	
     1.01000	    0.000	  0.00	  0.00	
     1.02000	    0.000	  0.00	  0.00	
     1.03000	    0.000	  0.00	  0.00	
     1.04000	    0.000	  0.00	  0.00	
     1.05000	    0.000	  0.00	  0.00	
     1.06000	    0.000	  0.00	  0.00	
     1.07000	    0.000	  0.00	  0.00	
     1.08000	    0.000	  0.00	  0.00	
     1.09000	    0.000	  0.00	  0.00	
     1.10000	    0.000	  0.00	  0.00	
     1.11000	    0.000	  0.00	  0.00	
     1.12000	    0.000	  0.00	  0.00	
     1.13000	    0.000	  0.00	  0.00	
     1.14000	    0.000	  0.00	  0.00	
     1.15000	    0.000	  0.00	  0.00	
     1.16000	    0.000	  0.00	  0.00	
     1.17000	    0.000	  0.00	  0.00	
     1.18000	    0.000	  0.00	  0.00	
     1.19000	    0.000	  0.00	  0.00	
     1.20000	    0.000	  0.00	  0.00	
     1.21000	    0.000	  0.00	  0.00	
     1.22000	    0.000	  0.00	  0.00	
     1.23000	    0.000	  0.00	  0.00	
     1.24000	    0.000	  0.00	  0.00	
     1.25000	    0.000	  0.00	  0.00	
     1.26000	    0.000	  0.00	  0.00	
     1.27000	    0.000	  0.00	  0.00	
     1.28000	    0.000	  0.00	  0.00	
     1.29000	    0.000	  0.00	  0.00	
     1.30000	    0.000	  0.00	  0.00	
     1.31000	    0.000	  0.00	  0.00	
     1.32000	    0.000	  0.00	  0.00	
     1.33000	    0.000	  0.00	  0.00	
     1.34000	    0.000	  0.00	  0.00	
     1.35000	    0.000	  0.00	  0.00	
     1.36000	    0.000	  0.00	  0.00	
     1.37000	    0.000	  0.00	  0.00	
     1.38000	    0.000	  0.00	  0.00	
     1.39000	    0.000	  0.00	  0.00	
     1.40000	    0.000	  0.00	  0.00	
     1.41000	    0.000	  0.00	  0.00	
     1.42000	    0.000	  0.00	  0.00	
     1.43000	    0.000	  0.00	  0.00	
     1.44000	    0.000	  0.00	  0.00	
     1.45000	    0.000	  0.00	  0.00	
     1.46000	    0.000	  0.00	  0.00	
     1.47000	    0.000	  0.00	  0.00	
     1.48000	    0.000	  0.00	  0.00	
     1.49000	    0.000	  0.00	  0.00	
     1.50000	    0.000	  0.00	  0.00	
     1.51000	    0.000	  0.00	  0.00	
     1.52000	    0.000	  0.00	  0.00	
     1.53000	    0.000	  0.00	  0.00	
     1.54000	    0.000	  0.00	  0.00	
     1.55000	    0.000	  0.00	  0.00	
     1.56000	    0.000	  0.00	  0.00	
     1.57000	    0.000	  0.00	  0.00	
     1.58000	    0.000	  0.00	  0.00	
     1.59000	    0.000	  0.00	  0.00	
     1.60000	    0.000	  0.00	  0.00	
     1.61000	    0.000	  0.00	  0.00	
     1.62000	    0.000	  0.00	  0.00	
     1.63000	    0.000	  0.00	  0.00	
     1.64000	    0.000	  0.00	  0.00	
     1.65000	    0.000	  0.00	  0.00	
     1.66000	    0.000	  0.00	  0.00	
     1.67000	    0.000	  0.00	  0.00	
     1.68000	    0.000	  0.00	  0.00	
     1.69000	    0.000	  0.00	  0.00	
     1.70000	    0.000	  0.00	  0.00	
     1.71000	    0.000	  0.00	  0.00	
     1.72000	    0.000	  0.00	  0.00	
     1.73000	    0.000	  0.00	  0.00	
     1.74000	    0.000	  0.00	  0.00	
     1.75000	    0.000	  0.00	  0.00	
     1.76000	    0.000	  0.00	  0.00	
     1.77000	    0.000	  0.00	  0.00	
     1.78000	    0.000	  0.00	  0.00	
     1.79000	    0.000	  0.00	  0.00	
     1.80000	    0.000	  0.00	  0.00	
     1.81000	    0.000	  0.00	  0.00	
     1.82000	    0.000	  0.00	  0.00	
     1.83000	    0.000	  0.00	  0.00	
     1.84000	    0.000	  0.00	  0.00	
     1.85000	    0.000	  0.00	  0.00	
     1.86000	    0.000	  0.00	  0.00	
     1.87000	    0.000	  0.00	  0.00	
     1.88000	    0.000	  0.00	  0.00	
     1.89000	    0.000	  0.00	  0.00	
     1.90000	    0.000	  0.00	  0.00	
     1.91000	    0.000	  0.00	  0.00	
     1.92000	    0.000	  0.00	  0.00	
     1.93000	    0.000	  0.00	  0.00	
     1.94000	    0.000	  0.00	  0.00	
     1.95000	    0.000	  0.00	  0.00	
     1.96000	    0.000	  0.00	  0.00	
     1.97000	    0.000	  0.00	  0.00	
     1.98000	    0.000	  0.00	  0.00	
     1.99000	    0.000	  0.00	  0.00	
     2.00000	    0.000	  0.00	  0.00	
     2.01000	    0.000	  0.00	  0.00	
     2.02000	    0.000	  0.00	  0.00	
     2.03000	    0.000	  0.00	  0.00	
     2.04000	    0.000	  0.00	  0.00	
     2.05000	    0.000	  0.00	  0.00	
     2.06000	    0.000	  0.00	  0.00	
     2.07000	    0.000	  0.00	  0.00	
     2.08000	    0.000	  0.00	  0.00	
     2.09000	    0.000	  0.00	  0.00	
     2.10000	    0.000	  0.00	  0.00	
     2.11000	    0.000	  0.00	  0.00	
     2.12000	    0.000	  0.00	  0.00	
     2.13000	    0.000	  0.00	  0.00	
     2.14000	    0.000	  0.00	  0.00	
     2.15000	    0.000	  0.00	  0.00	
     2.16000	    0.000	  0.00	  0.00	
     2.17000	    0.000	  0.00	  0.00	
     2.18000	    0.000	  0.00	  0.00	
     2.19000	    0.000	  0.00	  0.00	
     2.20000	    0.000	  0.00	  0.00	
     2.21000	    0.000	  0.00	  0.00	
     2.22000	    0.000	  0.00	  0.00	
     2.23000	    0.000	  0.00	  0.00	
     2.24000	    0.000	  0.00	  0.00	
     2.25000	    0.000	  0.00	  0.00	
     2.26000	    0.000	  0.00	  0.00	
     2.27000	    0.000	  0.00	  0.00	
     2.28000	    0.000	  0.00	  0.00	
     2.29000	    0.000	  0.00	  0.00	
     2.30000	    0.000	  0.00	  0.00	
     2.31000	    0.000	  0.00	  0.00	
     2.32000	    0.000	  0.00	  0.00	
     2.33000	    0.000	  0.00	  0.00	
     2.34000	    0.000	  0.00	  0.00	
     2.35000	    0.000	  0.00	  0.00	
     2.36000	    0.000	  0.00	  0.00	
     2.37000	    0.000	  0.00	  0.00	
     2.38000	    0.000	  0.00	  0.00	
     2.39000	    0.000	  0.00	  0.00	
     2.40000	    0.000	  0.00	  0.00	
     2.41000	    0.000	  0.00	  0.00	
     2.42000	    0.000	  0.00	  0.00	
     2.43000	    0.000	  0.00	  0.00	
     2.44000	    0.000	  0.00	  0.00	
     2.45000	    0.000	  0.00	  0.00	
     2.46000	    0.000	  0.00	  0.00	
     2.47000	    0.000	  0.00	  0.00	
     2.48000	    0.000	  0.00	  0.00	
     2.49000	    0.000	  0.00	  0.00	
     2.50000	    0.000	  0.00	  0.00	
     2.51000	    0.000	  0.00	  0.00	
     2.52000	    0.000	  0.00	  0.00	
     2.53000	    0.000	  0.00	  0.00	
     2.54000	    0.000	  0.00	  0.00	
     2.55000	    0.000	  0.00	  0.00	
     2.56000	    0.000	  0.00	  0.00	
     2.57000	    0.000	  0.00	  0.00	
     2.58000	    0.000	  0.00	  0.00	
     2.59000	    0.000	  0.00	  0.00	
     2.60000	    0.000	  0.00	  0.00	
     2.61000	    0.000	  0.00	  0.00	
     2.62000	    0.000	  0.00	  0.00	
     2.63000	    0.000	  0.00	  0.00	
     2.64000	    0.000	  0.00	  0.00	
     2.65000	    0.000	  0.00	  0.00	
     2.66000	    0.000	  0.00	  0.00	
     2.67000	    0.000	  0.00	  0.00	
     2.68000	    0.000	  0.00	  0.00	
     2.69000	    0.000	  0.00	  0.00	
     2.70000	    0.000	  0.00	  0.00	
     2.71000	    0.000	  0.00	  0.00	
     2.72000	    0.000	  0.00	  0.00	
     2.73000	    0.000	  0.00	  0.00	
     2.74000	    0.000	  0.00	  0.00	
     2.75000	    0.000	  0.00	  0.00	
     2.76000	    0.000	  0.00	  0.00	
     2.77000	    0.000	  0.00	  0.00	
     2.78000	    0.000	  0.00	  0.00	
     2.79000	    0.000	  0.00	  0.00	
     2.80000	    0.000	  0.00	  0.00	
     2.81000	    0.000	  0.00	  0.00	
     2.82000	    0.000	  0.00	  0.00	
     2.83000	    0.000	  0.00	  0.00	
     2.84000	    0.000	  0.00	  0.00	
     2.85000	    0.000	  0.00	  0.00	
     2.86000	    0.000	  0.00	  0.00	
     2.87000	    0.000	  0.00	  0.00	
     2.88000	    0.000	  0.00	  0.00	
     2.89000	    0.000	  0.00	  0.00	
     2.90000	    0.000	  0.00	  0.00	
     2.91000	    0.000	  0.00	  0.00	
     2.92000	    0.000	  0.00	  0.00	
     2.93000	    0.000	  0.00	  0.00	
     2.94000	    0.000	  0.00	  0.00	
     2.95000	    0.000	  0.00	  0.00	
     2.96000	    0.000	  0.00	  0.00	
     2.97000	    0.000	  0.00	  0.00	
     2.98000	   72.000	 55.14	145.00	
     2.99000	   47.500	 52.37	145.00	
     3.00000	   56.500	 53.58	145.00	
     3.01000	   79.000	 53.16	145.00	
     3.02000	   25.000	 39.00	145.00	
     3.03000	   27.500	 51.91	145.00	
     3.04000	   86.500	 53.90	145.00	
     3.05000	  109.000	 54.17	145.00	
     3.06000	  112.500	 54.33	145.00	
     3.07000	  116.000	 55.00	145.00	
     3.08000	  117.500	 54.70	145.00	
     3.09000	  118.000	 54.49	145.00	
     3.10000	  119.500	 54.46	145.00	
     3.11000	  121.000	 54.50	143.84	
     3.12000	  122.000	 54.59	143.85	
     3.13000	  121.500	 54.51	143.85	
     3.14000	  121.500	 54.59	143.85	
     3.15000	  122.000	 54.59	143.85	
     3.16000	  122.000	 54.59	143.85	
     3.17000	  123.000	 54.51	143.58	
     3.18000	  124.500	 54.44	142.31	
     3.19000	  125.000	 54.52	142.32	
     3.20000	  125.000	 54.52	142.32	
     3.21000	  124.500	 54.44	142.31	
     3.22000	  125.000	 54.56	142.32	
     3.23000	  125.000	 54.36	142.32	
     3.24000	  125.500	 54.44	142.33	
     3.25000	  125.500	 54.36	142.01	
     3.26000	  126.000	 54.44	142.02	
     3.27000	  125.500	 54.64	141.73	
     3.28000	  127.000	 54.41	141.77	
     3.29000	  129.000	 54.11	141.36	
     3.30000	  131.500	 53.59	140.97	
     3.31000	  132.000	 53.60	140.98	
     3.32000	  133.500	 53.76	139.53	
     3.33000	  132.500	 53.57	139.19	
     3.34000	   17.500	 44.71	 89.57	
     3.35000	   15.500	 45.97	 83.71	
     3.36000	   17.500	 44.71	 93.00	
     3.37000	   18.000	 44.17	 90.28	
     3.38000	  139.000	 52.77	137.63	
     3.39000	  142.000	 53.17	135.70	
     3.40000	   20.500	 45.73	 87.44	
     3.41000	   23.500	 47.13	 86.70	
     3.42000	   27.500	 46.09	 93.00	
     3.43000	   25.500	 46.18	 89.71	
     3.44000	   31.500	 44.68	 97.70	
     3.45000	   31.500	 44.68	 97.70	
     3.46000	   31.500	 44.68	 97.70	
     3.47000	   32.000	 43.91	 98.75	
     3.48000	   32.000	 44.38	 97.97	
     3.49000	   35.500	 45.28	 95.99	
     3.50000	  150.500	 51.98	133.54	
     3.51000	   39.000	 48.21	 94.23	
     3.52000	   52.000	 60.00	104.81	
     3.53000	  158.500	 52.67	132.51	
     3.54000	   44.000	 48.75	 95.45	
     3.55000	   47.000	 50.43	 93.62	
     3.56000	   47.000	 50.96	 93.19	
     3.57000	   49.500	 52.07	 91.87	
     3.58000	   54.500	 55.28	 89.50	
     3.59000	   57.500	 54.83	 91.17	
     3.60000	   58.000	 55.26	 90.86	
     3.61000	   60.500	 54.83	 90.95	
     3.62000	   61.000	 54.67	 91.31	
     3.63000	  187.500	 54.20	126.33	
     3.64000	  191.000	 54.74	125.39	
     3.65000	  189.500	 54.74	124.63	
     3.66000	   66.500	 55.83	 88.38	
     3.67000	  195.500	 54.62	124.28	
     3.68000	  197.000	 54.70	124.21	
     3.69000	  196.500	 54.69	124.36	
     3.70000	  200.000	 54.80	123.82	
     3.71000	  201.000	 55.15	123.16	
     3.72000	  200.000	 55.15	123.38	
     3.73000	  197.000	 55.33	122.99	
     3.74000	  202.500	 55.17	123.10	
     3.75000	  206.500	 55.46	121.63	
     3.76000	  205.500	 55.32	122.30	
     3.77000	  207.000	 56.01	121.21	
     3.78000	  207.500	 56.01	121.22	
     3.79000	  213.000	 56.38	119.93	
     3.80000	  215.500	 56.83	119.43	
     3.81000	  215.500	 56.90	119.41	
     3.82000	  216.000	 56.85	118.75	
     3.83000	  217.500	 56.72	118.66	
     3.84000	  217.000	 56.68	118.78	
     3.85000	  217.500	 56.75	118.66	
     3.86000	  217.500	 56.82	118.61	
     3.87000	  218.000	 56.81	118.49	
     3.88000	  218.500	 56.95	118.36	
     3.89000	  221.000	 57.08	117.69	
     3.90000	  220.500	 57.00	117.81	
     3.91000	  221.000	 57.31	117.49	
     3.92000	  223.500	 56.99	117.15	
     3.93000	  222.000	 56.91	118.06	
     3.94000	  221.500	 57.05	117.69	
     3.95000	  226.000	 57.83	115.88	
     3.96000	  225.000	 57.82	116.31	
     3.97000	  229.500	 57.81	115.76	
     3.98000	  228.500	 58.00	115.59	
     3.99000	  227.500	 58.10	115.44	
     4.00000	  231.500	 57.85	115.32	
     4.01000	  232.000	 58.04	115.30	
     4.02000	  231.500	 58.00	115.11	
     4.03000	  235.500	 57.78	114.68	
     4.04000	  234.000	 57.78	115.32	
     4.05000	  237.000	 57.95	114.85	
     4.06000	  237.000	 57.85	114.66	
     4.07000	  241.500	 58.44	113.65	
     4.08000	  240.000	 58.31	113.75	
     4.09000	  240.500	 58.26	114.13	
     4.10000	  245.000	 58.63	113.16	
     4.11000	  248.000	 58.89	112.88	
     4.12000	  248.500	 58.78	112.95	
     4.13000	  249.500	 58.27	113.02	
     4.14000	  253.000	 58.36	112.69	
     4.15000	  255.500	 58.35	112.46	
     4.16000	  256.000	 58.52	112.11	
     4.17000	  263.000	 58.10	112.21	
     4.18000	  266.000	 58.61	111.22	
     4.19000	  268.000	 58.43	111.32	
     4.20000	  268.500	 58.13	111.50	
     4.21000	  270.000	 58.54	111.20	
     4.22000	  271.000	 58.58	110.74	
     4.23000	  273.000	 58.64	110.68	
     4.24000	  274.000	 58.52	110.78	
     4.25000	  274.000	 58.61	110.73	
     4.26000	  273.000	 58.50	110.77	
     4.27000	  273.000	 58.35	110.93	
     4.28000	  271.500	 58.08	111.26	
     4.29000	  266.000	 57.99	111.84	
     4.30000	  265.500	 57.73	112.18	
     4.31000	  269.500	 57.50	111.96	
     4.32000	  285.500	 57.45	111.06	
     4.33000	  317.500	 57.54	108.43	
     4.34000	  373.500	 58.45	104.48	
     4.35000	  445.500	 59.66	101.18	
     4.36000	  510.000	 60.12	 98.80	
     4.37000	  573.000	 60.99	 97.63	
     4.38000	  613.500	 61.33	 96.56	
     4.39000	  641.500	 61.27	 96.46	
     4.40000	  659.000	 61.08	 96.19	
     4.41000	  651.500	 61.16	 96.49	
     4.42000	  637.500	 61.02	 96.81	
     4.43000	  618.500	 60.73	 97.13	
     4.44000	  587.500	 60.84	 97.66	
     4.45000	  557.500	 60.48	 98.11	
     4.46000	  534.500	 60.44	 98.24	
     4.47000	  509.000	 60.08	 99.13	
     4.48000	  490.000	 59.58	 99.45	
     4.49000	  473.500	 59.17	100.28	
     4.50000	  459.000	 59.08	100.86	
     4.51000	  443.500	 58.90	101.49	
     4.52000	  433.000	 58.81	101.93	
     4.53000	  415.500	 58.61	102.76	
     4.54000	  405.000	 58.63	103.41	
     4.55000	  400.500	 58.15	104.14	
     4.56000	  402.000	 58.33	103.68	
     4.57000	  393.000	 57.76	104.86	
     4.58000	  401.500	 58.00	104.44	
     4.59000	  397.000	 57.88	104.91	
     4.60000	  392.500	 58.03	104.97	
     4.61000	  386.500	 58.04	105.03	
     4.62000	  380.000	 58.53	105.09	
     4.63000	  376.500	 58.77	104.96	
     4.64000	  366.500	 58.55	105.29	
     4.65000	  357.500	 58.83	105.78	
     4.66000	  350.500	 58.75	106.63	
     4.67000	  350.500	 59.14	105.39	
     4.68000	  348.500	 59.28	105.70	
     4.69000	  344.000	 59.23	105.51	
     4.70000	  327.500	 59.41	106.07	
     4.71000	  325.000	 59.63	106.63	
     4.72000	  311.500	 59.33	107.50	
     4.73000	  306.500	 59.45	107.40	
     4.74000	  298.000	 59.68	108.00	
     4.75000	  291.000	 59.59	108.23	
     4.76000	  284.000	 59.74	108.47	
     4.77000	  275.500	 60.23	108.72	
     4.78000	  267.500	 60.03	109.02	
     4.79000	  263.000	 59.75	109.87	
     4.80000	  254.500	 60.60	110.17	
     4.81000	  249.000	 60.56	110.74	
     4.82000	  241.000	 60.06	111.97	
     4.83000	  231.000	 60.00	112.97	
     4.84000	  215.500	 59.59	116.04	
     4.85000	  204.500	 60.04	118.06	
     4.86000	   77.500	 71.26	 73.39	
     4.87000	   68.000	 73.09	 73.68	
     4.88000	   65.000	 72.62	 74.08	
     4.89000	   61.500	 72.15	 74.19	
     4.90000	   54.000	 74.35	 71.11	
     4.91000	   47.500	 76.26	 69.11	
     4.92000	  164.500	 58.86	127.13	
     4.93000	   39.500	 73.61	 73.23	
     4.94000	   35.000	 74.43	 71.14	
     4.95000	   32.000	 73.44	 73.28	
     4.96000	   29.500	 72.29	 72.97	
     4.97000	   25.000	 73.60	 72.60	
     4.98000	   21.500	 71.51	 74.53	
     4.99000	   17.000	 80.29	 60.88	
     5.00000	   18.500	 76.89	 64.19	
     5.01000	   14.000	 82.14	 59.29	
     5.02000	   14.000	 82.14	 59.29	
     5.03000	   14.000	 83.57	 60.71	
     5.04000	   10.000	105.00	 35.00	
     5.05000	   10.000	105.00	 35.00	
     5.06000	    6.000	105.00	 25.00	
     5.07000	    6.000	105.00	 25.00	
     5.08000	    4.000	105.00	 20.00	
     5.09000	    4.000	105.00	 20.00	
     5.10000	    4.000	105.00	 20.00	
     5.11000	    4.000	105.00	 20.00	
     5.12000	    2.000	105.00	 15.00	
     5.13000	    2.000	105.00	 15.00	
     5.14000	    2.000	105.00	 15.00	
     5.15000	    2.000	105.00	 15.00	
     5.16000	    4.000	105.00	 10.00	
     5.17000	    4.000	105.00	 10.00	
     5.18000	    4.000	105.00	 10.00	
     5.19000	    4.000	105.00	 10.00	
     5.20000	    2.000	105.00	  5.00	
     5.21000	    2.000	105.00	  5.00	
     5.22000	    2.000	105.00	  5.00	
     5.23000	    2.000	105.00	  5.00	
     5.24000	    2.000	105.00	  5.00	
     5.25000	   41.000	 54.27	138.17	
     5.26000	   83.000	 55.18	141.63	
     5.27000	   90.000	 55.56	141.89	
     5.28000	  115.000	 55.26	142.57	
     5.29000	  116.500	 55.77	142.60	
     5.30000	  120.500	 55.54	142.68	
     5.31000	  120.500	 55.54	142.68	
     5.32000	  120.500	 55.54	142.68	
     5.33000	  120.500	 55.54	142.68	
     5.34000	  121.000	 55.54	142.69	
     5.35000	  120.500	 55.54	142.68	
     5.36000	  119.500	 54.75	145.00	
     5.37000	  118.500	 54.70	145.00	
     5.38000	  118.500	 54.70	145.00	
     5.39000	  118.500	 54.70	145.00	
     5.40000	  119.000	 54.75	145.00	
     5.41000	  118.500	 54.70	145.00	
     5.42000	  118.500	 54.70	145.00	
     5.43000	  118.500	 54.70	145.00	
     5.44000	  118.500	 54.70	145.00	
     5.45000	  118.500	 54.70	145.00	
     5.46000	  118.500	 54.70	145.00	
     5.47000	  118.500	 54.70	145.00	
     5.48000	  118.500	 54.70	145.00	
     5.49000	  118.500	 54.70	145.00	
     5.50000	  118.000	 54.79	145.00	
     5.51000	  118.500	 54.70	145.00	
     5.52000	  118.500	 54.70	145.00	
     5.53000	  117.500	 54.66	145.00	
     5.54000	  117.500	 54.83	145.00	
     5.55000	  118.000	 54.75	145.00	
     5.56000	  117.000	 54.74	145.00	
     5.57000	  118.000	 55.00	145.00	
     5.58000	  117.500	 54.83	145.00	
     5.59000	  117.500	 54.83	145.00	
     5.60000	  117.500	 54.83	145.00	
     5.61000	  117.500	 54.83	145.00	
     5.62000	  117.500	 54.83	145.00	
     5.63000	  118.000	 54.79	145.00	
     5.64000	  117.500	 54.83	145.00	
     5.65000	  117.500	 54.83	145.00	
     5.66000	  118.000	 55.00	145.00	
     5.67000	  117.500	 54.83	145.00	
     5.68000	  117.000	 54.74	145.00	
     5.69000	  117.500	 54.83	145.00	
     5.70000	  117.500	 54.66	145.00	
     5.71000	  118.000	 55.00	145.00	
     5.72000	  117.500	 54.83	145.00	
     5.73000	  117.000	 54.74	145.00	
     5.74000	  117.000	 54.74	145.00	
     5.75000	  117.500	 54.83	145.00	
     5.76000	  117.500	 54.83	145.00	
     5.77000	  117.500	 54.83	145.00	
     5.78000	  117.500	 54.83	145.00	
     5.79000	  117.500	 54.83	145.00	
     5.80000	  118.000	 54.79	145.00	
     5.81000	  117.500	 54.83	145.00	
     5.82000	  117.000	 54.74	145.00	
     5.83000	  117.500	 54.83	145.00	
     5.84000	  117.500	 54.83	145.00	
     5.85000	  118.000	 54.75	145.00	
     5.86000	  117.000	 54.74	145.00	
     5.87000	  117.000	 54.74	145.00	
     5.88000	  117.500	 54.83	145.00	
     5.89000	  117.000	 54.74	145.00	
     5.90000	  117.500	 54.83	145.00	
     5.91000	  118.000	 55.00	145.00	
     5.92000	  117.500	 54.83	145.00	
     5.93000	  117.500	 54.83	145.00	
     5.94000	  117.500	 54.83	145.00	
     5.95000	  117.000	 54.74	145.00	
     5.96000	  118.000	 55.00	145.00	
     5.97000	  117.500	 54.83	145.00	
     5.98000	  117.000	 54.74	145.00	
     5.99000	  118.000	 55.00	145.00	
     6.00000	  117.500	 54.83	145.00	
     6.01000	  117.500	 54.83	145.00	
     6.02000	  117.500	 54.83	145.00	
     6.03000	  118.000	 55.00	145.00	
     6.04000	  117.500	 54.83	145.00	
     6.05000	  117.000	 54.74	145.00	
     6.06000	  117.500	 54.83	145.00	
     6.07000	  117.500	 54.91	145.00	
     6.08000	  117.500	 54.83	145.00	
     6.09000	  117.500	 54.83	145.00	
     6.10000	  117.000	 54.74	145.00	
     6.11000	  117.000	 54.74	145.00	
     6.12000	  117.000	 54.74	145.00	
     6.13000	  117.500	 54.83	145.00	
     6.14000	  117.500	 54.83	145.00	
     6.15000	  117.500	 54.83	145.00	
     6.16000	  118.000	 55.00	145.00	
     6.17000	  117.500	 54.83	145.00	
     6.18000	  117.000	 54.74	145.00	
     6.19000	  117.500	 54.83	145.00	
     6.20000	  117.500	 54.83	145.00	
     6.21000	  117.500	 54.83	145.00	
     6.22000	  117.500	 54.83	145.00	
     6.23000	  117.500	 54.83	145.00	
     6.24000	  117.500	 54.83	145.00	
     6.25000	  117.500	 54.83	145.00	
     6.26000	  117.000	 54.74	145.00	
     6.27000	  117.500	 54.91	145.00	
     6.28000	  117.500	 54.91	145.00	
     6.29000	  117.500	 54.83	145.00	
     6.30000	  118.000	 55.00	145.00	
     6.31000	  117.500	 54.83	145.00	
     6.32000	  117.500	 54.83	145.00	
     6.33000	  117.500	 54.83	145.00	
     6.34000	  117.500	 54.83	145.00	
     6.35000	  117.500	 54.83	145.00	
     6.36000	  117.500	 54.83	145.00	
     6.37000	  118.000	 55.00	145.00	
     6.38000	  117.500	 54.83	145.00	
     6.39000	  117.000	 54.74	145.00	
     6.40000	  117.000	 54.74	145.00	
     6.41000	  117.500	 54.83	145.00	
     6.42000	  117.500	 54.83	145.00	
     6.43000	  117.500	 54.83	145.00	
     6.44000	  117.500	 54.83	145.00	
     6.45000	  117.500	 54.83	145.00	
     6.46000	  117.000	 54.74	145.00	
     6.47000	  117.500	 54.83	145.00	
     6.48000	  117.500	 54.83	145.00	
     6.49000	  117.000	 54.74	145.00	
     6.50000	  117.500	 54.66	145.00	
     6.51000	  117.500	 54.83	145.00	
     6.52000	  117.500	 54.83	145.00	
     6.53000	  117.500	 54.83	145.00	
     6.54000	  117.500	 54.83	145.00	
     6.55000	  117.000	 54.74	145.00	
     6.56000	  118.000	 55.00	145.00	
     6.57000	  117.500	 54.83	145.00	
     6.58000	  117.500	 54.83	145.00	
     6.59000	  117.500	 54.83	145.00	
     6.60000	  117.500	 54.83	145.00	
     6.61000	  117.500	 54.83	145.00	
     6.62000	  117.500	 54.83	145.00	
     6.63000	  117.500	 54.83	145.00	
     6.64000	  117.500	 54.83	145.00	
     6.65000	  117.500	 54.83	145.00	
     6.66000	  117.000	 54.74	145.00	
     6.67000	  117.500	 54.83	145.00	
     6.68000	  117.500	 54.83	145.00	
     6.69000	  117.000	 54.74	145.00	
     6.70000	  117.000	 54.74	145.00	
     6.71000	  117.500	 54.83	145.00	
     6.72000	  117.500	 54.83	145.00	
     6.73000	  117.500	 54.83	145.00	
     6.74000	  117.500	 54.83	145.00	
     6.75000	  117.500	 54.83	145.00	
     6.76000	  117.500	 54.83	145.00	
     6.77000	  117.500	 54.83	145.00	
     6.78000	  117.500	 54.83	145.00	
     6.79000	  117.500	 54.91	145.00	
     6.80000	  117.500	 54.83	145.00	
     6.81000	  117.500	 54.83	145.00	
     6.82000	  117.500	 54.83	145.00	
     6.83000	  117.500	 54.83	145.00	
     6.84000	  117.500	 54.83	145.00	
     6.85000	  117.500	 54.83	145.00	
     6.86000	  117.500	 54.83	145.00	
     6.87000	  118.000	 54.75	145.00	
     6.88000	  117.500	 54.83	145.00	
     6.89000	  117.500	 54.83	145.00	
     6.90000	  117.000	 54.74	145.00	
     6.91000	  117.000	 54.74	145.00	
     6.92000	  117.000	 54.74	145.00	
     6.93000	  117.500	 54.83	145.00	
     6.94000	  117.500	 54.83	145.00	
     6.95000	  117.500	 54.83	145.00	
     6.96000	  117.500	 54.83	145.00	
     6.97000	  117.500	 54.83	145.00	
     6.98000	  117.000	 54.74	145.00	
     6.99000	  117.000	 54.74	145.00	
     7.00000	  117.000	 54.74	145.00	
     7.01000	  117.000	 54.74	145.00	
     7.02000	  117.500	 54.83	145.00	
     7.03000	  117.500	 54.83	145.00	
     7.04000	  117.000	 54.74	145.00	
     7.05000	  117.500	 54.83	145.00	
     7.06000	  117.500	 54.83	145.00	
     7.07000	  117.500	 54.83	145.00	
     7.08000	  117.500	 54.83	145.00	
     7.09000	  118.000	 55.00	145.00	
     7.10000	  117.500	 54.91	145.00	
     7.11000	  117.000	 54.74	145.00	
     7.12000	  117.000	 54.74	145.00	
     7.13000	  117.500	 54.83	145.00	
     7.14000	  118.000	 55.00	145.00	
     7.15000	  117.500	 54.83	145.00	
     7.16000	  117.500	 54.83	145.00	
     7.17000	  117.000	 54.74	145.00	
     7.18000	  117.500	 54.83	145.00	
     7.19000	  117.500	 54.66	145.00	
     7.20000	  117.500	 54.83	145.00	
     7.21000	  117.500	 54.83	145.00	
     7.22000	  117.500	 54.83	145.00	
     7.23000	  117.500	 54.83	145.00	
     7.24000	  117.500	 54.83	145.00	
     7.25000	  117.500	 54.83	145.00	
     7.26000	  117.500	 54.83	145.00	
     7.27000	  117.500	 54.83	145.00	
     7.28000	  117.500	 54.83	145.00	
     7.29000	  117.000	 54.74	145.00	
     7.30000	  118.000	 55.00	145.00	
     7.31000	  117.000	 54.74	145.00	
     7.32000	  117.500	 54.83	145.00	
     7.33000	  117.500	 54.83	145.00	
     7.34000	  118.000	 55.00	145.00	
     7.35000	  117.500	 54.83	145.00	
     7.36000	  117.000	 54.74	145.00	
     7.37000	  117.500	 54.83	145.00	
     7.38000	  117.500	 54.83	145.00	
     7.39000	  117.000	 54.74	145.00	
     7.40000	  117.500	 54.83	145.00	
     7.41000	  117.000	 54.74	145.00	
     7.42000	  117.500	 54.83	145.00	
     7.43000	  117.500	 54.83	145.00	
     7.44000	  117.000	 54.74	145.00	
     7.45000	  117.500	 54.83	145.00	
     7.46000	  117.500	 54.91	145.00	
     7.47000	  118.000	 55.00	145.00	
     7.48000	  117.000	 54.74	145.00	
     7.49000	  118.000	 55.00	145.00	
     7.50000	  117.500	 54.83	145.00	
     7.51000	  117.000	 54.74	145.00	
     7.52000	  117.500	 54.91	145.00	
     7.53000	  118.000	 54.75	145.00	
     7.54000	  117.500	 54.83	145.00	
     7.55000	  117.500	 54.83	145.00	
     7.56000	  117.500	 54.83	145.00	
     7.57000	  118.000	 55.00	145.00	
     7.58000	  117.500	 54.83	145.00	
     7.59000	  117.000	 54.74	145.00	
     7.60000	  118.000	 55.00	145.00	
     7.61000	  117.500	 54.83	145.00	
     7.62000	  117.500	 54.83	145.00	
     7.63000	  118.000	 55.00	145.00	
     7.64000	  117.500	 54.83	145.00	
     7.65000	  117.000	 54.74	145.00	
     7.66000	  117.000	 54.74	145.00	
     7.67000	  117.500	 54.83	145.00	
     7.68000	  117.500	 54.83	145.00	
     7.69000	  117.000	 54.74	145.00	
     7.70000	  117.500	 54.83	145.00	
     7.71000	  117.500	 54.83	145.00	
     7.72000	  117.500	 54.83	145.00	
     7.73000	  117.500	 54.83	145.00	
     7.74000	  117.500	 54.83	145.00	
     7.75000	  117.500	 54.83	145.00	
     7.76000	  117.500	 54.83	145.00	
     7.77000	  117.500	 54.83	145.00	
     7.78000	  117.500	 54.83	145.00	
     7.79000	  117.500	 54.83	145.00	
     7.80000	  117.500	 54.83	145.00	
     7.81000	  117.000	 54.74	145.00	
     7.82000	  118.000	 55.00	145.00	
     7.83000	  117.500	 54.83	145.00	
     7.84000	  117.500	 54.83	145.00	
     7.85000	  117.500	 54.83	145.00	
     7.86000	  117.500	 54.83	145.00	
     7.87000	  117.000	 54.74	145.00	
     7.88000	  117.500	 54.83	145.00	
     7.89000	  117.500	 54.83	145.00	
     7.90000	  117.000	 54.74	145.00	
     7.91000	  117.500	 54.83	145.00	
     7.92000	  117.500	 54.83	145.00	
     7.93000	  117.000	 54.74	145.00	
     7.94000	  117.500	 54.83	145.00	
     7.95000	  118.000	 54.75	145.00	
     7.96000	  117.000	 54.74	145.00	
     7.97000	  117.500	 54.83	145.00	
     7.98000	  117.500	 54.83	145.00	
     7.99000	  117.000	 54.74	145.00	
     8.00000	  117.500	 54.83	145.00	
     8.01000	  117.500	 54.83	145.00	
     8.02000	  117.500	 54.83	145.00	
     8.03000	  117.500	 54.83	145.00	
     8.04000	  117.500	 54.83	145.00	
     8.05000	  117.500	 54.83	145.00	
     8.06000	  117.000	 54.74	145.00	
     8.07000	  117.500	 54.83	145.00	
     8.08000	  117.000	 54.74	145.00	
     8.09000	  117.500	 54.83	145.00	
     8.10000	  117.500	 54.83	145.00	
     8.11000	  117.500	 54.83	145.00	
     8.12000	  117.500	 54.83	145.00	
     8.13000	  117.500	 54.83	145.00	
     8.14000	  117.500	 54.83	145.00	
     8.15000	  117.000	 54.74	145.00	
     8.16000	  117.500	 54.83	145.00	
     8.17000	  117.500	 54.83	145.00	
     8.18000	  117.500	 54.83	145.00	
     8.19000	  117.500	 54.83	145.00	
     8.20000	  117.500	 54.83	145.00	
     8.21000	  117.500	 54.66	145.00	
     8.22000	  117.500	 54.83	145.00	
     8.23000	  117.500	 54.83	145.00	
     8.24000	  117.500	 54.83	145.00	
     8.25000	  117.500	 54.83	145.00	
     8.26000	  117.500	 54.83	145.00	
     8.27000	  117.500	 54.83	145.00	
     8.28000	  117.500	 54.83	145.00	
     8.29000	  117.500	 54.83	145.00	
     8.30000	  117.500	 54.83	145.00	
     8.31000	  117.500	 54.83	145.00	
     8.32000	  117.500	 54.83	145.00	
     8.33000	  117.000	 54.74	145.00	
     8.34000	  117.000	 54.74	145.00	
     8.35000	  117.500	 54.83	145.00	
     8.36000	  117.500	 54.83	145.00	
     8.37000	  117.500	 54.83	145.00	
     8.38000	  117.500	 54.83	145.00	
     8.39000	  117.500	 54.83	145.00	
     8.40000	  118.000	 55.00	145.00	
     8.41000	  117.000	 54.74	145.00	
     8.42000	  117.500	 54.83	145.00	
     8.43000	  117.000	 54.74	145.00	
     8.44000	  117.500	 54.83	145.00	
     8.45000	  117.500	 54.83	145.00	
     8.46000	  117.000	 54.74	145.00	
     8.47000	  117.500	 54.83	145.00	
     8.48000	  117.500	 54.83	145.00	
     8.49000	  117.500	 54.83	145.00	
     8.50000	  117.500	 54.83	145.00	
     8.51000	  117.000	 54.74	145.00	
     8.52000	  117.000	 54.74	145.00	
     8.53000	  117.500	 54.83	145.00	
     8.54000	  117.000	 54.74	145.00	
     8.55000	  117.500	 54.83	145.00	
     8.56000	  117.500	 54.83	145.00	
     8.57000	  117.500	 54.83	145.00	
     8.58000	  117.500	 54.83	145.00	
     8.59000	  117.500	 54.83	145.00	
     8.60000	  117.500	 54.83	145.00	
     8.61000	  117.500	 54.83	145.00	
     8.62000	  117.000	 54.74	145.00	
     8.63000	  117.000	 54.74	145.00	
     8.64000	  117.000	 54.74	145.00	
     8.65000	  117.500	 54.83	145.00	
     8.66000	  117.000	 54.74	145.00	
     8.67000	  117.500	 54.83	145.00	
     8.68000	  117.000	 54.74	145.00	
     8.69000	  117.000	 54.74	145.00	
     8.70000	  117.500	 54.83	145.00	
     8.71000	  117.000	 54.74	145.00	
     8.72000	  118.000	 55.00	145.00	
     8.73000	  117.500	 54.83	145.00	
     8.74000	  117.500	 54.83	145.00	
     8.75000	  117.500	 54.91	145.00	
     8.76000	  117.500	 54.83	145.00	
     8.77000	  117.500	 54.83	145.00	
     8.78000	  117.500	 54.83	145.00	
     8.79000	  117.000	 54.74	145.00	
     8.80000	  117.500	 54.83	145.00	
     8.81000	  117.000	 54.74	145.00	
     8.82000	  117.000	 54.74	145.00	
     8.83000	  117.500	 54.83	145.00	
     8.84000	  117.500	 54.83	145.00	
     8.85000	  117.000	 54.74	145.00	
     8.86000	  117.000	 54.74	145.00	
     8.87000	  117.500	 54.83	145.00	
     8.88000	  117.000	 54.74	145.00	
     8.89000	  117.500	 54.83	145.00	
     8.90000	  117.500	 54.83	145.00	
     8.91000	  117.500	 54.83	145.00	
     8.92000	  117.500	 54.83	145.00	
     8.93000	  117.500	 54.91	145.00	
     8.94000	  117.000	 54.74	145.00	
     8.95000	  117.000	 54.74	145.00	
     8.96000	  117.500	 54.83	145.00	
     8.97000	  117.500	 54.83	145.00	
     8.98000	  117.500	 54.83	145.00	
     8.99000	  117.500	 54.83	145.00	
     9.00000	  117.500	 54.83	145.00	
     9.01000	  117.500	 54.83	145.00	
     9.02000	  117.000	 54.74	145.00	
     9.03000	  117.500	 54.83	145.00	
     9.04000	  117.000	 54.74	145.00	
     9.05000	  117.000	 54.74	145.00	
     9.06000	  117.500	 54.83	145.00	
     9.07000	  117.500	 54.83	145.00	
     9.08000	  117.500	 54.83	145.00	
     9.09000	  117.500	 54.91	145.00	
     9.10000	  117.000	 54.74	145.00	
     9.11000	  117.500	 54.83	145.00	
     9.12000	  118.000	 55.00	145.00	
     9.13000	  117.500	 54.83	145.00	
     9.14000	  117.500	 54.83	145.00	
     9.15000	  117.500	 54.83	145.00	
     9.16000	  117.000	 54.74	145.00	
     9.17000	  117.500	 54.83	145.00	
     9.18000	  117.000	 54.74	145.00	
     9.19000	  117.000	 54.74	145.00	
     9.20000	  117.500	 54.83	145.00	
     9.21000	  117.000	 54.74	145.00	
     9.22000	  117.500	 54.83	145.00	
     9.23000	  117.500	 54.83	145.00	
     9.24000	  117.000	 54.74	145.00	
     9.25000	  117.500	 54.91	145.00	
     9.26000	  117.000	 54.74	145.00	
     9.27000	  117.500	 54.83	145.00	
     9.28000	  117.500	 54.83	145.00	
     9.29000	  117.500	 54.83	145.00	
     9.30000	  117.500	 54.83	145.00	
     9.31000	  117.500	 54.83	145.00	
     9.32000	  117.000	 54.74	145.00	
     9.33000	  117.500	 54.83	145.00	
     9.34000	  117.500	 54.91	145.00	
     9.35000	  117.500	 54.83	145.00	
     9.36000	  117.500	 54.83	145.00	
     9.37000	  117.000	 54.74	145.00	
     9.38000	  118.000	 54.75	145.00	
     9.39000	  118.000	 55.00	145.00	
     9.40000	  117.500	 54.83	145.00	
     9.41000	  117.500	 54.83	145.00	
     9.42000	  117.500	 54.83	145.00	
     9.43000	  117.500	 54.91	145.00	
     9.44000	  117.000	 54.74	145.00	
     9.45000	  118.000	 55.00	145.00	
     9.46000	  117.500	 54.83	145.00	
     9.47000	  117.000	 54.74	145.00	
     9.48000	  117.000	 54.74	145.00	
     9.49000	  117.000	 54.74	145.00	
     9.50000	  117.500	 54.83	145.00	
     9.51000	  117.000	 54.74	145.00	
     9.52000	  117.000	 54.74	145.00	
     9.53000	  117.500	 54.83	145.00	
     9.54000	  117.500	 54.83	145.00	
     9.55000	  117.000	 54.74	145.00	
     9.56000	  117.000	 54.74	145.00	
     9.57000	  117.500	 54.83	145.00	
     9.58000	  117.000	 54.74	145.00	
     9.59000	  117.500	 54.83	145.00	
     9.60000	  117.500	 54.83	145.00	
     9.61000	  117.500	 54.83	145.00	
     9.62000	  118.000	 55.00	145.00	
     9.63000	  117.500	 54.83	145.00	
     9.64000	  117.000	 54.74	145.00	
     9.65000	  117.500	 54.83	145.00	
     9.66000	  117.000	 54.74	145.00	
     9.67000	  117.000	 54.74	145.00	
     9.68000	  117.000	 54.74	145.00	
     9.69000	  117.500	 54.83	145.00	
     9.70000	  117.500	 54.83	145.00	
     9.71000	  117.000	 54.74	145.00	
     9.72000	  117.500	 54.83	145.00	
     9.73000	  117.500	 54.83	145.00	
     9.74000	  117.500	 54.83	145.00	
     9.75000	  117.500	 54.91	145.00	
     9.76000	  117.500	 54.83	145.00	
     9.77000	  117.000	 54.74	145.00	
     9.78000	  117.500	 54.83	145.00	
     9.79000	  117.000	 54.74	145.00	
     9.80000	  117.000	 54.74	145.00	
     9.81000	  117.500	 54.83	145.00	
     9.82000	  117.000	 54.74	145.00	
     9.83000	  117.000	 54.74	145.00	
     9.84000	  117.000	 54.74	145.00	
     9.85000	  117.000	 54.74	145.00	
     9.86000	  118.000	 55.00	145.00	
     9.87000	  117.500	 54.83	145.00	
     9.88000	  117.500	 54.91	145.00	
     9.89000	  117.500	 54.83	145.00	
     9.90000	  117.500	 54.83	145.00	
     9.91000	  117.500	 54.83	145.00	
     9.92000	  117.000	 54.74	145.00	
     9.93000	  117.000	 54.74	145.00	
     9.94000	  117.000	 54.74	145.00	
     9.95000	  117.000	 54.74	145.00	
     9.96000	  117.000	 54.74	145.00	
     9.97000	  117.500	 54.83	145.00	
     9.98000	  117.500	 54.83	145.00	
     9.99000	  118.000	 55.00	145.00	
    10.00000	  117.500	 54.83	145.00	
    10.01000	  117.500	 54.83	145.00	
    10.02000	  117.500	 54.83	145.00	
    10.03000	  117.500	 54.83	145.00	
    10.04000	  117.500	 54.83	145.00	
    10.05000	  117.500	 54.83	145.00	
    10.06000	  117.000	 54.74	145.00	
    10.07000	  117.500	 54.83	145.00	
    10.08000	  117.000	 54.74	145.00	
    10.09000	  117.500	 54.83	145.00	
    10.10000	  117.000	 54.74	145.00	
    10.11000	  117.000	 54.74	145.00	
    10.12000	  117.000	 54.74	145.00	
    10.13000	  117.000	 54.74	145.00	
    10.14000	  117.500	 54.83	145.00	
    10.15000	  117.500	 54.83	145.00	
    10.16000	  117.000	 54.74	145.00	
    10.17000	  117.500	 54.83	145.00	
    10.18000	  117.500	 54.83	145.00	
    10.19000	  117.500	 54.83	145.00	
    10.20000	  117.000	 54.74	145.00	
    10.21000	  117.000	 54.74	145.00	
    10.22000	  117.000	 54.74	145.00	
    10.23000	  117.000	 54.74	145.00	
    10.24000	  117.500	 54.83	145.00	
    10.25000	  117.500	 54.83	145.00	
    10.26000	  117.500	 54.83	145.00	
    10.27000	  117.500	 54.66	145.00	
    10.28000	  117.500	 54.83	145.00	
    10.29000	  117.500	 54.83	145.00	
    10.30000	  117.500	 54.83	145.00	
    10.31000	  118.000	 54.75	145.00	
    10.32000	  117.500	 54.83	145.00	
    10.33000	  117.000	 54.74	145.00	
    10.34000	  117.500	 54.83	145.00	
    10.35000	  117.500	 54.83	145.00	
    10.36000	  117.500	 54.83	145.00	
    10.37000	  117.000	 54.74	145.00	
    10.38000	  118.000	 55.00	145.00	
    10.39000	  117.500	 54.83	145.00	
    10.40000	  117.500	 54.83	145.00	
    10.41000	  117.500	 54.83	145.00	
    10.42000	  117.000	 54.74	145.00	
    10.43000	  117.500	 54.83	145.00	
    10.44000	  117.500	 54.83	145.00	
    10.45000	  117.500	 54.83	145.00	
    10.46000	  117.500	 54.83	145.00	
    10.47000	  117.500	 54.83	145.00	
    10.48000	  117.500	 54.83	145.00	
    10.49000	  117.500	 54.83	145.00	
    10.50000	  117.500	 54.83	145.00	
    10.51000	  117.500	 54.83	145.00	
    10.52000	  117.500	 54.83	145.00	
    10.53000	  117.000	 54.74	145.00	
    10.54000	  117.500	 54.83	145.00	
    10.55000	  117.500	 54.83	145.00	
    10.56000	  117.500	 54.83	145.00	
    10.57000	  117.500	 54.83	145.00	
    10.58000	  117.000	 54.74	145.00	
    10.59000	  117.500	 54.83	145.00	
    10.60000	  117.500	 54.83	145.00	
    10.61000	  117.500	 54.83	145.00	
    10.62000	  117.000	 54.74	145.00	
    10.63000	  117.000	 54.74	145.00	
    10.64000	  117.500	 54.83	145.00	
    10.65000	  117.500	 54.83	145.00	
    10.66000	  117.500	 54.83	145.00	
    10.67000	  117.000	 54.74	145.00	
    10.68000	  117.000	 54.74	145.00	
    10.69000	  117.500	 54.83	145.00	
    10.70000	  117.000	 54.74	145.00	
    10.71000	  117.500	 54.83	145.00	
    10.72000	  117.500	 54.83	145.00	
    10.73000	  117.000	 54.74	145.00	
    10.74000	  118.000	 55.00	145.00	
    10.75000	  117.500	 54.66	145.00	
    10.76000	  117.000	 54.74	145.00	
    10.77000	  117.500	 54.83	145.00	
    10.78000	  117.500	 54.83	145.00	
    10.79000	  117.000	 54.74	145.00	
    10.80000	  117.500	 54.83	145.00	
    10.81000	  117.500	 54.66	145.00	
    10.82000	  117.500	 54.83	145.00	
    10.83000	  117.000	 54.74	145.00	
    10.84000	  117.000	 54.74	145.00	
    10.85000	  117.000	 54.74	145.00	
    10.86000	  117.500	 54.83	145.00	
    10.87000	  117.500	 54.83	145.00	
    10.88000	  117.500	 54.83	145.00	
    10.89000	  117.500	 54.83	145.00	
    10.90000	  117.500	 54.83	145.00	
    10.91000	  117.500	 54.83	145.00	
    10.92000	  117.500	 54.83	145.00	
    10.93000	  117.000	 54.74	145.00	
    10.94000	  117.500	 54.83	145.00	
    10.95000	  117.500	 54.83	145.00	
    10.96000	  117.500	 54.83	145.00	
    10.97000	  117.500	 54.83	145.00	
    10.98000	  117.500	 54.83	145.00	
    10.99000	  117.000	 54.74	145.00	
    11.00000	  117.000	 54.74	145.00	
    11.01000	  117.500	 54.83	145.00	
    11.02000	  117.500	 54.83	145.00	
    11.03000	  117.000	 54.74	145.00	
    11.04000	  117.000	 54.74	145.00	
    11.05000	  117.500	 54.83	145.00	
    11.06000	  117.500	 54.83	145.00	
    11.07000	  117.500	 54.83	145.00	
    11.08000	  117.000	 54.74	145.00	
    11.09000	  117.500	 54.83	145.00	
    11.10000	  117.500	 54.83	145.00	
    11.11000	  117.000	 54.74	145.00	
    11.12000	  117.500	 54.83	145.00	
    11.13000	  117.000	 54.74	145.00	
    11.14000	  118.000	 54.75	145.00	
    11.15000	  117.500	 54.66	145.00	
    11.16000	  117.500	 54.83	145.00	
    11.17000	  117.500	 54.83	145.00	
    11.18000	  117.500	 54.83	145.00	
    11.19000	  117.500	 54.83	145.00	
    11.20000	  117.000	 54.74	145.00	
    11.21000	  117.000	 54.74	145.00	
    11.22000	  117.500	 54.83	145.00	
    11.23000	  117.000	 54.74	145.00	
    11.24000	  118.000	 54.75	145.00	
    11.25000	  117.500	 54.83	145.00	
    11.26000	  118.000	 54.75	145.00	
    11.27000	  117.000	 54.74	145.00	
    11.28000	  117.500	 54.83	145.00	
    11.29000	  118.000	 54.75	145.00	
    11.30000	  117.000	 54.74	145.00	
    11.31000	  117.000	 54.74	145.00	
    11.32000	  117.500	 54.66	145.00	
    11.33000	  117.000	 54.74	145.00	
    11.34000	  117.500	 54.83	145.00	
    11.35000	  118.000	 54.75	145.00	
    11.36000	  117.500	 54.83	145.00	
    11.37000	  117.500	 54.83	145.00	
    11.38000	  117.500	 54.83	145.00	
    11.39000	  118.000	 54.75	145.00	
    11.40000	  117.000	 54.74	145.00	
    11.41000	  117.500	 54.83	145.00	
    11.42000	  117.500	 54.83	145.00	
    11.43000	  117.500	 54.83	145.00	
    11.44000	  117.500	 54.83	145.00	
    11.45000	  118.000	 54.75	145.00	
    11.46000	  117.000	 54.74	145.00	
    11.47000	  117.500	 54.66	145.00	
    11.48000	  117.000	 54.74	145.00	
    11.49000	  117.500	 54.83	145.00	
    11.50000	  117.500	 54.83	145.00	
    11.51000	  117.500	 54.83	145.00	
    11.52000	  117.500	 54.83	145.00	
    11.53000	  117.500	 54.83	145.00	
    11.54000	  117.000	 54.74	145.00	
    11.55000	  117.500	 54.83	145.00	
    11.56000	  118.000	 54.75	145.00	
    11.57000	  117.500	 54.83	145.00	
    11.58000	  117.500	 54.83	145.00	
    11.59000	  117.500	 54.83	145.00	
    11.60000	  117.000	 54.74	145.00	
    11.61000	  117.500	 54.83	145.00	
    11.62000	  117.500	 54.83	145.00	
    11.63000	  117.000	 54.74	145.00	
    11.64000	  117.500	 54.66	145.00	
    11.65000	  117.000	 54.74	145.00	
    11.66000	  117.500	 54.83	145.00	
    11.67000	  117.000	 54.74	145.00	
    11.68000	  117.000	 54.74	145.00	
    11.69000	  117.000	 54.74	145.00	
    11.70000	  117.500	 54.83	145.00	
    11.71000	  117.000	 54.74	145.00	
    11.72000	  118.000	 54.75	145.00	
    11.73000	  117.500	 54.83	145.00	
    11.74000	  118.000	 54.75	145.00	
    11.75000	  117.500	 54.83	145.00	
    11.76000	  117.500	 54.83	145.00	
    11.77000	  117.000	 54.74	145.00	
    11.78000	  117.500	 54.83	145.00	
    11.79000	  118.000	 55.00	145.00	
    11.80000	  117.500	 54.66	145.00	
    11.81000	  117.000	 54.74	145.00	
    11.82000	  117.500	 54.83	145.00	
    11.83000	  117.000	 54.74	145.00	
    11.84000	  118.000	 54.75	145.00	
    11.85000	  117.500	 54.66	145.00	
    11.86000	  118.000	 55.00	145.00	
    11.87000	  117.500	 54.83	145.00	
    11.88000	  118.000	 54.75	145.00	
    11.89000	  117.500	 54.83	145.00	
    11.90000	  117.000	 54.74	145.00	
    11.91000	  117.500	 54.83	145.00	
    11.92000	  117.000	 54.74	145.00	
    11.93000	  117.000	 54.74	145.00	
    11.94000	  117.500	 54.83	145.00	
    11.95000	  117.500	 54.83	145.00	
    11.96000	  117.500	 54.83	145.00	
    11.97000	  117.500	 54.83	145.00	
    11.98000	  117.000	 54.74	145.00	
    11.99000	  117.500	 54.83	145.00	
    12.00000	  117.500	 54.83	145.00	
    12.01000	  117.500	 54.83	145.00	
    12.02000	  117.000	 54.74	145.00	
    12.03000	  117.500	 54.83	145.00	
    12.04000	  117.000	 54.74	145.00	
    12.05000	  117.000	 54.74	145.00	
    12.06000	  117.000	 54.74	145.00	
    12.07000	  118.000	 54.83	145.00	
    12.08000	  118.000	 54.75	145.00	
    12.09000	  117.500	 54.83	145.00	
    12.10000	  117.000	 54.74	145.00	
    12.11000	  117.500	 54.66	145.00	
    12.12000	  118.000	 54.75	145.00	
    12.13000	  117.000	 54.74	145.00	
    12.14000	  117.500	 54.83	145.00	
    12.15000	  117.500	 54.83	145.00	
    12.16000	  117.000	 54.74	145.00	
    12.17000	  117.500	 54.83	145.00	
    12.18000	  117.500	 54.83	145.00	
    12.19000	  117.000	 54.74	145.00	
    12.20000	  117.000	 54.74	145.00	
    12.21000	  117.500	 54.83	145.00	
    12.22000	  117.500	 54.83	145.00	
    12.23000	  117.500	 54.83	145.00	
    12.24000	  117.500	 54.83	145.00	
    12.25000	  117.500	 54.83	145.00	
    12.26000	  117.500	 54.83	145.00	
    12.27000	  117.500	 54.83	145.00	
    12.28000	  117.500	 54.83	145.00	
    12.29000	  117.500	 54.66	145.00	
    12.30000	  117.500	 54.83	145.00	
    12.31000	  117.500	 54.83	145.00	
    12.32000	  118.000	 54.75	145.00	
    12.33000	  117.500	 54.83	145.00	
    12.34000	  117.500	 54.83	145.00	
    12.35000	  117.500	 54.83	145.00	
    12.36000	  117.500	 54.83	145.00	
    12.37000	  117.500	 54.83	145.00	
    12.38000	  117.500	 54.83	145.00	
    12.39000	  117.500	 54.83	145.00	
    12.40000	  118.000	 54.75	145.00	
    12.41000	  117.000	 54.74	145.00	
    12.42000	  117.500	 54.83	145.00	
    12.43000	  117.500	 54.91	145.00	
    12.44000	  118.000	 54.75	145.00	
    12.45000	  117.500	 54.83	145.00	
    12.46000	  117.000	 54.74	145.00	
    12.47000	  117.500	 54.83	145.00	
    12.48000	  117.500	 54.83	145.00	
    12.49000	  117.000	 54.74	145.00	
    12.50000	  117.500	 54.83	145.00	
    12.51000	  117.500	 54.83	145.00	
    12.52000	  117.500	 54.91	145.00	
    12.53000	  117.500	 54.83	145.00	
    12.54000	  117.000	 54.74	145.00	
    12.55000	  117.500	 54.83	145.00	
    12.56000	  117.500	 54.66	145.00	
    12.57000	  118.000	 54.75	145.00	
    12.58000	  117.500	 54.83	145.00	
    12.59000	  117.500	 54.83	145.00	
    12.60000	  117.000	 54.74	145.00	
    12.61000	  117.500	 54.83	145.00	
    12.62000	  117.500	 54.83	145.00	
    12.63000	  117.500	 54.83	145.00	
    12.64000	  117.500	 54.83	145.00	
    12.65000	  117.500	 54.83	145.00	
    12.66000	  117.000	 54.74	145.00	
    12.67000	  117.500	 54.83	145.00	
    12.68000	  117.500	 54.83	145.00	
    12.69000	  117.000	 54.74	145.00	
    12.70000	  117.500	 54.83	145.00	
    12.71000	  117.500	 54.83	145.00	
    12.72000	  117.500	 54.83	145.00	
    12.73000	  117.500	 54.83	145.00	
    12.74000	  117.500	 54.83	145.00	
    12.75000	  117.000	 54.74	145.00	
    12.76000	  117.000	 54.74	145.00	
    12.77000	  117.500	 54.83	145.00	
    12.78000	  117.500	 54.91	145.00	
    12.79000	  117.000	 54.74	145.00	
    12.80000	  117.000	 54.74	145.00	
    12.81000	  117.500	 54.83	145.00	
    12.82000	  117.000	 54.74	145.00	
    12.83000	  117.500	 54.83	145.00	
    12.84000	  117.500	 54.83	145.00	
    12.85000	  117.500	 54.83	145.00	
    12.86000	  117.500	 54.83	145.00	
    12.87000	  117.500	 54.91	145.00	
    12.88000	  117.500	 54.83	145.00	
    12.89000	  117.000	 54.74	145.00	
    12.90000	  117.500	 54.91	145.00	
    12.91000	  117.000	 54.74	145.00	
    12.92000	  117.000	 54.74	145.00	
    12.93000	  117.500	 54.83	145.00	
    12.94000	  117.500	 54.91	145.00	
    12.95000	  117.500	 54.83	145.00	
    12.96000	  117.000	 54.74	145.00	
    12.97000	  117.500	 54.83	145.00	
    12.98000	  117.500	 54.83	145.00	
    12.99000	  117.500	 54.83	145.00	
    13.00000	  117.500	 54.83	145.00	
    13.01000	  117.000	 54.74	145.00	
    13.02000	  118.000	 54.75	145.00	
    13.03000	  117.500	 54.83	145.00	
    13.04000	  117.500	 54.83	145.00	
    13.05000	  117.000	 54.74	145.00	
    13.06000	  117.500	 54.91	145.00	
    13.07000	  117.500	 54.83	145.00	
    13.08000	  117.000	 54.74	145.00	
    13.09000	  117.500	 54.83	145.00	
    13.10000	  117.500	 54.83	145.00	
    13.11000	  117.500	 54.83	145.00	
    13.12000	  117.500	 54.83	145.00	
    13.13000	  117.500	 54.83	145.00	
    13.14000	  117.500	 54.83	145.00	
    13.15000	  117.000	 54.74	145.00	
    13.16000	  117.500	 54.83	145.00	
    13.17000	  117.500	 54.83	145.00	
    13.18000	  117.500	 54.83	145.00	
    13.19000	  117.000	 54.74	145.00	
    13.20000	  117.500	 54.83	145.00	
    13.21000	  117.500	 54.83	145.00	
    13.22000	  117.500	 54.83	145.00	
    13.23000	  117.000	 54.74	145.00	
    13.24000	  118.000	 54.75	145.00	
    13.25000	  117.500	 54.83	145.00	
    13.26000	  117.500	 54.83	145.00	
    13.27000	  117.500	 54.83	145.00	
    13.28000	  118.000	 54.75	145.00	
    13.29000	  117.000	 54.74	145.00	
    13.30000	  117.500	 54.83	145.00	
    13.31000	  117.500	 54.83	145.00	
    13.32000	  117.500	 54.83	145.00	
    13.33000	  117.000	 54.74	145.00	
    13.34000	  117.500	 54.83	145.00	
    13.35000	  118.000	 54.75	145.00	
    13.36000	  117.500	 54.83	145.00	
    13.37000	  117.500	 54.83	145.00	
    13.38000	  118.000	 54.75	145.00	
    13.39000	  117.500	 54.83	145.00	
    13.40000	  117.000	 54.74	145.00	
    13.41000	  117.000	 54.74	145.00	
    13.42000	  117.500	 54.83	145.00	
    13.43000	  118.000	 54.75	145.00	
    13.44000	  117.500	 54.83	145.00	
    13.45000	  117.500	 54.83	145.00	
    13.46000	  117.500	 54.83	145.00	
    13.47000	  118.000	 54.75	145.00	
    13.48000	  117.000	 54.74	145.00	
    13.49000	  117.500	 54.83	145.00	
    13.50000	  118.000	 55.00	145.00	
    13.51000	  117.500	 54.83	145.00	
    13.52000	  117.500	 54.83	145.00	
    13.53000	  117.000	 54.74	145.00	
    13.54000	  117.500	 54.83	145.00	
    13.55000	  117.500	 54.66	145.00	
    13.56000	  117.000	 54.74	145.00	
    13.57000	  117.000	 54.74	145.00	
    13.58000	  117.500	 54.83	145.00	
    13.59000	  117.500	 54.83	145.00	
    13.60000	  118.000	 54.75	145.00	
    13.61000	  117.500	 54.83	145.00	
    13.62000	  117.500	 54.83	145.00	
    13.63000	  117.000	 54.74	145.00	
    13.64000	  117.500	 54.83	145.00	
    13.65000	  117.000	 54.74	145.00	
    13.66000	  118.000	 54.75	145.00	
    13.67000	  117.500	 54.83	145.00	
    13.68000	  118.000	 54.75	145.00	
    13.69000	  117.500	 54.83	145.00	
    13.70000	  117.500	 54.83	145.00	
    13.71000	  117.000	 54.74	145.00	
    13.72000	  117.500	 54.66	145.00	
    13.73000	  117.500	 54.83	145.00	
    13.74000	  117.000	 54.74	145.00	
    13.75000	  118.000	 54.75	145.00	
    13.76000	  117.000	 54.74	145.00	
    13.77000	  117.500	 54.83	145.00	
    13.78000	  117.500	 54.83	145.00	
    13.79000	  118.000	 54.75	145.00	
    13.80000	  117.500	 54.83	145.00	
    13.81000	  117.500	 54.83	145.00	
    13.82000	  118.000	 54.75	145.00	
    13.83000	  117.500	 54.83	145.00	
    13.84000	  117.000	 54.74	145.00	
    13.85000	  117.500	 54.66	145.00	
    13.86000	  117.500	 54.83	145.00	
    13.87000	  117.500	 54.83	145.00	
    13.88000	  117.500	 54.83	145.00	
    13.89000	  117.500	 54.83	145.00	
    13.90000	  117.000	 54.74	145.00	
    13.91000	  117.500	 54.83	145.00	
    13.92000	  117.500	 54.83	145.00	
    13.93000	  117.500	 54.83	145.00	
    13.94000	  118.000	 54.75	145.00	
    13.95000	  118.000	 54.75	145.00	
    13.96000	  117.500	 54.66	145.00	
    13.97000	  117.500	 54.83	145.00	
    13.98000	  117.500	 54.83	145.00	
    13.99000	  117.500	 54.83	145.00	
    14.00000	  117.000	 54.74	145.00	
    14.01000	  117.000	 54.74	145.00	
    14.02000	  117.500	 54.83	145.00	
    14.03000	  118.000	 54.75	145.00	
    14.04000	  117.500	 54.83	145.00	
    14.05000	  118.000	 54.75	145.00	
    14.06000	  117.500	 54.83	145.00	
    14.07000	  118.000	 54.75	145.00	
    14.08000	  117.500	 54.83	145.00	
    14.09000	  117.500	 54.83	145.00	
    14.10000	  117.500	 54.83	145.00	
    14.11000	  117.000	 54.74	145.00	
    14.12000	  117.500	 54.66	145.00	
    14.13000	  117.500	 54.83	145.00	
    14.14000	  117.500	 54.83	145.00	
    14.15000	  117.500	 54.83	145.00	
    14.16000	  117.500	 54.83	145.00	
    14.17000	  117.000	 54.74	145.00	
    14.18000	  117.500	 54.66	145.00	
    14.19000	  117.500	 54.83	145.00	
    14.20000	  117.500	 54.91	145.00	
    14.21000	  117.500	 54.83	145.00	
    14.22000	  117.500	 54.83	145.00	
    14.23000	  117.000	 54.74	145.00	
    14.24000	  117.500	 54.83	145.00	
    14.25000	  117.000	 54.74	145.00	
    14.26000	  117.500	 54.66	145.00	
    14.27000	  117.500	 54.83	145.00	
    14.28000	  117.500	 54.83	145.00	
    14.29000	  117.500	 54.91	145.00	
    14.30000	  117.500	 54.83	145.00	
    14.31000	  117.500	 54.83	145.00	
    14.32000	  118.000	 54.75	145.00	
    14.33000	  117.000	 54.74	145.00	
    14.34000	  117.500	 54.66	145.00	
    14.35000	  117.500	 54.66	145.00	
    14.36000	  117.500	 54.83	145.00	
    14.37000	  117.500	 54.83	145.00	
    14.38000	  117.000	 54.74	145.00	
    14.39000	  117.500	 54.83	145.00	
    14.40000	  117.500	 54.83	145.00	
    14.41000	  117.500	 54.83	145.00	
    14.42000	  118.000	 54.75	145.00	
    14.43000	  117.500	 54.83	145.00	
    14.44000	  117.500	 54.83	145.00	
    14.45000	  118.000	 55.00	145.00	
    14.46000	  118.000	 54.75	145.00	
    14.47000	  117.500	 54.83	145.00	
    14.48000	  118.000	 54.75	145.00	
    14.49000	  117.000	 54.74	145.00	
    14.50000	  118.000	 55.00	145.00	
    14.51000	  117.500	 54.83	145.00	
    14.52000	  117.000	 54.74	145.00	
    14.53000	  117.000	 54.74	145.00	
    14.54000	  117.000	 54.74	145.00	
    14.55000	  117.000	 54.74	145.00	
    14.56000	  118.000	 54.75	145.00	
    14.57000	  118.000	 55.00	145.00	
    14.58000	  117.500	 54.83	145.00	
    14.59000	  117.000	 54.74	145.00	
    14.60000	  117.500	 54.83	145.00	
    14.61000	  117.500	 54.83	145.00	
    14.62000	  117.000	 54.74	145.00	
    14.63000	  118.000	 55.00	145.00	
    14.64000	  118.000	 54.75	145.00	
    14.65000	  117.500	 54.83	145.00	
    14.66000	  117.500	 54.83	145.00	
    14.67000	  118.000	 54.75	145.00	
    14.68000	  117.500	 54.83	145.00	
    14.69000	  118.000	 54.75	145.00	
    14.70000	  117.500	 54.83	145.00	
    14.71000	  117.500	 54.83	145.00	
    14.72000	  117.500	 54.83	145.00	
    14.73000	  117.000	 54.74	145.00	
    14.74000	  117.500	 54.83	145.00	
    14.75000	  117.000	 54.74	145.00	
    14.76000	  117.500	 54.83	145.00	
    14.77000	  117.500	 54.83	145.00	
    14.78000	  117.000	 54.74	145.00	
    14.79000	  117.500	 54.91	145.00	
    14.80000	  118.000	 54.75	145.00	
    14.81000	  118.000	 55.00	145.00	
    14.82000	  117.500	 54.83	145.00	
    14.83000	  117.000	 54.74	145.00	
    14.84000	  117.500	 54.83	145.00	
    14.85000	  117.500	 54.83	145.00	
    14.86000	  117.500	 54.83	145.00	
    14.87000	  118.000	 54.75	145.00	
    14.88000	  117.500	 54.83	145.00	
    14.89000	  117.500	 54.83	145.00	
    14.90000	  117.500	 54.83	145.00	
    14.91000	  117.000	 54.74	145.00	
    14.92000	  117.500	 54.83	145.00	
    14.93000	  117.500	 54.83	145.00	
    14.94000	  117.500	 54.66	145.00	
    14.95000	  117.500	 54.83	145.00	
    14.96000	  117.500	 54.83	145.00	
    14.97000	  117.500	 54.83	145.00	
    14.98000	  117.500	 54.66	145.00	
    14.99000	  117.500	 54.83	145.00	
    15.00000	  117.500	 54.83	145.00	
    15.01000	  117.500	 54.83	145.00	
    15.02000	  117.000	 54.74	145.00	
    15.03000	  117.500	 54.83	145.00	
    15.04000	  117.500	 54.83	145.00	
    15.05000	  117.000	 54.74	145.00	
    15.06000	  118.000	 54.75	145.00	
    15.07000	  117.500	 54.83	145.00	
    15.08000	  117.500	 54.83	145.00	
    15.09000	  118.500	 54.92	145.00	
    15.10000	  117.500	 54.83	145.00	
    15.11000	  118.000	 54.75	145.00	
    15.12000	  117.000	 54.74	145.00	
    15.13000	  117.000	 54.74	145.00	
    15.14000	  117.500	 54.83	145.00	
    15.15000	  117.000	 54.74	145.00	
    15.16000	  117.500	 54.83	145.00	
    15.17000	  117.500	 54.83	145.00	
    15.18000	  117.500	 54.83	145.00	
    15.19000	  117.500	 54.83	145.00	
    15.20000	  117.500	 54.83	145.00	
    15.21000	  117.500	 54.83	145.00	
    15.22000	  117.500	 54.83	145.00	
    15.23000	  117.500	 54.83	145.00	
    15.24000	  117.000	 54.74	145.00	
    15.25000	  117.500	 54.83	145.00	
    15.26000	  118.000	 54.75	145.00	
    15.27000	  117.500	 54.83	145.00	
    15.28000	  117.500	 54.83	145.00	
    15.29000	  117.000	 54.74	145.00	
    15.30000	  117.000	 54.74	145.00	
    15.31000	  117.500	 54.83	145.00	
    15.32000	  117.500	 54.83	145.00	
    15.33000	  117.000	 54.74	145.00	
    15.34000	  118.000	 54.75	145.00	
    15.35000	  117.500	 54.83	145.00	
    15.36000	  117.500	 54.83	145.00	
    15.37000	  118.000	 54.75	145.00	
    15.38000	  118.000	 55.00	145.00	
    15.39000	  118.000	 54.75	145.00	
    15.40000	  117.500	 54.83	145.00	
    15.41000	  117.000	 54.74	145.00	
    15.42000	  117.500	 54.83	145.00	
    15.43000	  117.500	 54.83	145.00	
    15.44000	  117.500	 54.83	145.00	
    15.45000	  117.500	 54.83	145.00	
    15.46000	  117.500	 54.66	145.00	
    15.47000	  117.500	 54.83	145.00	
    15.48000	  117.500	 54.83	145.00	
    15.49000	  117.000	 54.74	145.00	
    15.50000	  117.000	 54.74	145.00	
    15.51000	  118.000	 54.75	145.00	
    15.52000	  118.000	 55.00	145.00	
    15.53000	  117.000	 54.74	145.00	
    15.54000	  117.500	 54.83	145.00	
    15.55000	  117.500	 54.83	145.00	
    15.56000	  117.500	 54.83	145.00	
    15.57000	  117.500	 54.83	145.00	
    15.58000	  117.500	 54.83	145.00	
    15.59000	  117.500	 54.83	145.00	
    15.60000	  117.000	 54.74	145.00	
    15.61000	  117.500	 54.83	145.00	
    15.62000	  117.500	 54.83	145.00	
    15.63000	  118.000	 54.75	145.00	
    15.64000	  117.500	 54.83	145.00	
    15.65000	  118.000	 54.75	145.00	
    15.66000	  118.000	 54.75	145.00	
    15.67000	  118.000	 54.75	145.00	
    15.68000	  117.500	 54.66	145.00	
    15.69000	  117.500	 54.83	145.00	
    15.70000	  117.000	 54.74	145.00	
    15.71000	  117.500	 54.83	145.00	
    15.72000	  118.000	 54.75	145.00	
    15.73000	  117.500	 54.83	145.00	
    15.74000	  118.000	 54.75	145.00	
    15.75000	  117.500	 54.83	145.00	
    15.76000	  117.000	 54.74	145.00	
    15.77000	  117.000	 54.74	145.00	
    15.78000	  117.500	 54.83	145.00	
    15.79000	  117.500	 54.83	145.00	
    15.80000	  117.000	 54.74	145.00	
    15.81000	  117.500	 54.83	145.00	
    15.82000	  117.500	 54.91	145.00	
    15.83000	  117.500	 54.83	145.00	
    15.84000	  117.000	 54.74	145.00	
    15.85000	  117.500	 54.83	145.00	
    15.86000	  118.000	 54.75	145.00	
    15.87000	  117.500	 54.66	145.00	
    15.88000	  117.500	 54.83	145.00	
    15.89000	  117.500	 54.83	145.00	
    15.90000	  117.500	 54.83	145.00	
    15.91000	  117.500	 54.83	145.00	
    15.92000	  117.500	 54.66	145.00	
    15.93000	  117.500	 54.83	145.00	
    15.94000	  118.000	 54.75	145.00	
    15.95000	  117.500	 54.66	145.00	
    15.96000	  117.500	 54.83	145.00	
    15.97000	  117.500	 54.83	145.00	
    15.98000	  117.500	 54.83	145.00	
    15.99000	  118.000	 55.00	145.00	
    16.00000	  117.000	 54.74	145.00	
    16.01000	  117.500	 54.83	145.00	
    16.02000	  117.500	 54.83	145.00	
    16.03000	  117.500	 54.66	145.00	
    16.04000	  117.500	 54.66	145.00	
    16.05000	  117.000	 54.74	145.00	
    16.06000	  117.500	 54.83	145.00	
    16.07000	  117.000	 54.74	145.00	
    16.08000	  117.500	 54.91	145.00	
    16.09000	  117.500	 54.66	145.00	
    16.10000	  117.500	 54.66	145.00	
    16.11000	  117.500	 54.83	145.00	
    16.12000	  117.000	 54.53	145.00	
    16.13000	  117.000	 54.74	145.00	
    16.14000	  117.500	 54.83	145.00	
    16.15000	  117.000	 54.74	145.00	
    16.16000	  117.500	 54.83	145.00	
    16.17000	  117.500	 54.66	145.00	
    16.18000	  118.000	 54.75	145.00	
    16.19000	  117.000	 54.74	145.00	
    16.20000	  117.500	 54.83	145.00	
    16.21000	  118.000	 54.75	145.00	
    16.22000	  117.500	 54.83	145.00	
    16.23000	  117.500	 54.66	145.00	
    16.24000	  117.500	 54.83	145.00	
    16.25000	  118.000	 54.75	145.00	
    16.26000	  117.500	 54.83	145.00	
    16.27000	  117.500	 54.83	145.00	
    16.28000	  117.500	 54.83	145.00	
    16.29000	  118.000	 54.75	145.00	
    16.30000	  117.500	 54.83	145.00	
    16.31000	  117.000	 54.74	145.00	
    16.32000	  117.500	 54.83	145.00	
    16.33000	  118.000	 54.75	145.00	
    16.34000	  117.000	 54.74	145.00	
    16.35000	  118.000	 54.75	145.00	
    16.36000	  118.000	 54.75	145.00	
    16.37000	  118.000	 54.75	145.00	
    16.38000	  117.500	 54.83	145.00	
    16.39000	  118.000	 54.75	145.00	
    16.40000	  117.500	 54.83	145.00	
    16.41000	  117.000	 54.74	145.00	
    16.42000	  117.000	 54.74	145.00	
    16.43000	  117.500	 54.83	145.00	
    16.44000	  117.000	 54.74	145.00	
    16.45000	  117.000	 54.74	145.00	
    16.46000	  117.500	 54.83	145.00	
    16.47000	  117.500	 54.83	145.00	
    16.48000	  117.500	 54.83	145.00	
    16.49000	  117.500	 54.66	145.00	
    16.50000	  117.500	 54.66	145.00	
    16.51000	  118.000	 54.75	145.00	
    16.52000	  117.500	 54.83	145.00	
    16.53000	  117.500	 54.83	145.00	
    16.54000	  117.500	 54.66	145.00	
    16.55000	  117.000	 54.74	145.00	
    16.56000	  117.500	 54.83	145.00	
    16.57000	  117.500	 54.83	145.00	
    16.58000	  117.500	 54.83	145.00	
    16.59000	  117.500	 54.66	145.00	
    16.60000	  117.000	 54.74	145.00	
    16.61000	  117.000	 54.74	145.00	
    16.62000	  117.500	 54.83	145.00	
    16.63000	  117.000	 54.74	145.00	
    16.64000	  117.000	 54.74	145.00	
    16.65000	  117.500	 54.83	145.00	
    16.66000	  117.500	 54.83	145.00	
    16.67000	  118.000	 54.75	145.00	
    16.68000	  117.000	 54.74	145.00	
    16.69000	  117.500	 54.66	145.00	
    16.70000	  117.500	 54.83	145.00	
    16.71000	  117.500	 54.83	145.00	
    16.72000	  117.500	 54.83	145.00	
    16.73000	  118.000	 54.75	145.00	
    16.74000	  118.000	 54.75	145.00	
    16.75000	  117.500	 54.83	145.00	
    16.76000	  117.500	 54.83	145.00	
    16.77000	  117.500	 54.83	145.00	
    16.78000	  118.000	 54.75	145.00	
    16.79000	  117.500	 54.66	145.00	
    16.80000	  117.000	 54.74	145.00	
    16.81000	  117.500	 54.83	145.00	
    16.82000	  117.500	 54.83	145.00	
    16.83000	  118.000	 54.75	145.00	
    16.84000	  117.500	 54.83	145.00	
    16.85000	  117.500	 54.83	145.00	
    16.86000	  117.500	 54.66	145.00	
    16.87000	  118.000	 54.75	145.00	
    16.88000	  117.500	 54.83	145.00	
    16.89000	  117.500	 54.83	145.00	
    16.90000	  117.500	 54.83	145.00	
    16.91000	  117.500	 54.66	145.00	
    16.92000	  117.500	 54.66	145.00	
    16.93000	  117.500	 54.66	145.00	
    16.94000	  117.000	 54.74	145.00	
    16.95000	  117.500	 54.83	145.00	
    16.96000	  117.500	 54.83	145.00	
    16.97000	  117.000	 54.74	145.00	
    16.98000	  117.500	 54.83	145.00	
    16.99000	  117.000	 54.74	145.00	
    17.00000	  117.500	 54.66	145.00	
    17.01000	  117.500	 54.66	145.00	
    17.02000	  117.500	 54.66	145.00	
    17.03000	  117.500	 54.83	145.00	
    17.04000	  117.000	 54.74	145.00	
    17.05000	  117.500	 54.83	145.00	
    17.06000	  117.000	 54.74	145.00	
    17.07000	  117.500	 54.66	145.00	
    17.08000	  117.500	 54.83	145.00	
    17.09000	  117.000	 54.74	145.00	
    17.10000	  117.500	 54.66	145.00	
    17.11000	  117.500	 54.83	145.00	
    17.12000	  117.500	 54.83	145.00	
    17.13000	  117.500	 54.83	145.00	
    17.14000	  117.500	 54.83	145.00	
    17.15000	  118.000	 55.00	145.00	
    17.16000	  118.000	 54.75	145.00	
    17.17000	  118.000	 54.75	145.00	
    17.18000	  117.000	 54.74	145.00	
    17.19000	  118.000	 55.00	145.00	
    17.20000	  118.000	 54.75	145.00	
    17.21000	  117.500	 54.83	145.00	
    17.22000	  117.500	 54.83	145.00	
    17.23000	  117.000	 54.74	145.00	
    17.24000	  117.500	 54.83	145.00	
    17.25000	  117.500	 54.83	145.00	
    17.26000	  117.500	 54.83	145.00	
    17.27000	  117.000	 54.74	145.00	
    17.28000	  117.000	 54.74	145.00	
    17.29000	  117.500	 54.83	145.00	
    17.30000	  118.000	 54.83	145.00	
    17.31000	  117.500	 54.83	145.00	
    17.32000	  118.000	 54.83	145.00	
    17.33000	  117.500	 54.83	145.00	
    17.34000	  118.000	 54.75	145.00	
    17.35000	  117.500	 54.83	145.00	
    17.36000	  117.500	 54.83	145.00	
    17.37000	  118.000	 54.75	145.00	
    17.38000	  118.000	 54.75	145.00	
    17.39000	  117.000	 54.74	145.00	
    17.40000	  117.500	 54.83	145.00	
    17.41000	  117.500	 54.83	145.00	
    17.42000	  117.000	 54.74	145.00	
    17.43000	  117.500	 54.83	145.00	
    17.44000	  117.000	 54.74	145.00	
    17.45000	  117.000	 54.74	145.00	
    17.46000	  117.500	 54.83	145.00	
    17.47000	  117.500	 54.83	145.00	
    17.48000	  118.000	 54.75	145.00	
    17.49000	  117.000	 54.74	145.00	
    17.50000	  117.000	 54.74	145.00	
    17.51000	  117.500	 54.66	145.00	
    17.52000	  117.500	 54.83	145.00	
    17.53000	  117.500	 54.83	145.00	
    17.54000	  117.500	 54.83	145.00	
    17.55000	  117.500	 54.83	145.00	
    17.56000	  118.000	 54.75	145.00	
    17.57000	  118.000	 54.75	145.00	
    17.58000	  117.000	 54.74	145.00	
    17.59000	  117.500	 54.83	145.00	
    17.60000	  117.500	 54.66	145.00	
    17.61000	  117.000	 54.74	145.00	
    17.62000	  117.500	 54.66	145.00	
    17.63000	  118.000	 54.75	145.00	
    17.64000	  118.000	 54.83	145.00	
    17.65000	  117.000	 54.74	145.00	
    17.66000	  117.500	 54.66	145.00	
    17.67000	  117.000	 54.74	145.00	
    17.68000	  117.500	 54.83	145.00	
    17.69000	  118.000	 54.75	145.00	
    17.70000	  117.500	 54.83	145.00	
    17.71000	  118.000	 54.75	145.00	
    17.72000	  118.000	 54.83	145.00	
    17.73000	  117.500	 54.66	145.00	
    17.74000	  117.500	 54.91	145.00	
    17.75000	  118.000	 54.75	145.00	
    17.76000	  117.500	 54.83	145.00	
    17.77000	  117.500	 54.66	145.00	
    17.78000	  117.500	 54.83	145.00	
    17.79000	  117.500	 54.66	145.00	
    17.80000	  117.000	 54.74	145.00	
    17.81000	  117.500	 54.83	145.00	
    17.82000	  117.500	 54.83	145.00	
    17.83000	  117.500	 54.83	145.00	
    17.84000	  117.500	 54.66	145.00	
    17.85000	  118.000	 55.00	145.00	
    17.86000	  117.500	 54.83	145.00	
    17.87000	  117.500	 54.83	145.00	
    17.88000	  117.500	 54.83	145.00	
    17.89000	  117.500	 54.83	145.00	
    17.90000	  117.000	 54.74	145.00	
    17.91000	  117.500	 54.83	145.00	
    17.92000	  117.000	 54.74	145.00	
    17.93000	  117.500	 54.83	145.00	
    17.94000	  118.000	 54.75	145.00	
    17.95000	  117.500	 54.83	145.00	
    17.96000	  117.500	 54.83	145.00	
    17.97000	  117.500	 54.83	145.00	
    17.98000	  117.500	 54.83	145.00	
    17.99000	  118.000	 54.75	145.00	
    18.00000	  117.500	 54.83	145.00	
    18.01000	  117.000	 54.74	145.00	
    18.02000	  117.000	 54.74	145.00	
    18.03000	  117.500	 54.83	145.00	
    18.04000	  117.000	 54.74	145.00	
    18.05000	  117.500	 54.66	145.00	
    18.06000	  117.500	 54.83	145.00	
    18.07000	  118.000	 54.75	145.00	
    18.08000	  117.500	 54.83	145.00	
    18.09000	  117.500	 54.66	145.00	
    18.10000	  117.000	 54.74	145.00	
    18.11000	  117.000	 54.74	145.00	
    18.12000	  117.000	 54.74	145.00	
    18.13000	  117.500	 54.83	145.00	
    18.14000	  117.500	 54.83	145.00	
    18.15000	  117.500	 54.83	145.00	
    18.16000	  117.500	 54.66	145.00	
    18.17000	  117.500	 54.83	145.00	
    18.18000	  117.500	 54.83	145.00	
    18.19000	  117.500	 54.83	145.00	
    18.20000	  117.500	 54.83	145.00	
    18.21000	  118.000	 54.75	145.00	
    18.22000	  117.000	 54.74	145.00	
    18.23000	  117.000	 54.74	145.00	
    18.24000	  117.500	 54.83	145.00	
    18.25000	  117.500	 54.83	145.00	
    18.26000	  118.000	 54.83	145.00	
    18.27000	  117.000	 54.74	145.00	
    18.28000	  117.500	 54.83	145.00	
    18.29000	  117.500	 54.83	145.00	
    18.30000	  117.500	 54.83	145.00	
    18.31000	  117.500	 54.83	145.00	
    18.32000	  117.000	 54.74	145.00	
    18.33000	  117.000	 54.74	145.00	
    18.34000	  117.500	 54.83	145.00	
    18.35000	  117.500	 54.83	145.00	
    18.36000	  117.500	 54.83	145.00	
    18.37000	  117.500	 54.83	145.00	
    18.38000	  117.500	 54.66	145.00	
    18.39000	  117.500	 54.83	145.00	
    18.40000	  118.500	 54.92	145.00	
    18.41000	  117.500	 54.83	145.00	
    18.42000	  117.500	 54.66	145.00	
    18.43000	  117.500	 54.66	145.00	
    18.44000	  117.500	 54.83	145.00	
    18.45000	  117.500	 54.83	145.00	
    18.46000	  118.000	 54.75	145.00	
    18.47000	  117.500	 54.83	145.00	
    18.48000	  117.500	 54.83	145.00	
    18.49000	  117.000	 54.74	145.00	
    18.50000	  117.500	 54.83	145.00	
    18.51000	  118.000	 54.75	145.00	
    18.52000	  117.500	 54.83	145.00	
    18.53000	  117.000	 54.74	145.00	
    18.54000	  117.500	 54.66	145.00	
    18.55000	  118.000	 54.83	145.00	
    18.56000	  117.500	 54.83	145.00	
    18.57000	  117.000	 54.74	145.00	
    18.58000	  117.500	 54.83	145.00	
    18.59000	  118.000	 54.75	145.00	
    18.60000	  116.500	 54.96	145.00	
    18.61000	  117.500	 54.83	145.00	
    18.62000	  117.000	 54.74	145.00	
    18.63000	  117.500	 54.83	145.00	
    18.64000	  117.000	 54.74	145.00	
