file name:  S2128_09_1_2_MPa_PXF440_220809_309.mat	date/time  03.09.22 13.36
sensor type:  s2128_09_1_2_mpa_pxf440_220809 
force time integral[N*s]:      1003.255
pressure time integral [kPa*s]:      994.800
total time [secs]:  18.770	time per frame [secs]:  0.01000	scanning rate [Hz]:   100


time[secs]    	force[N]   	x[mm]     	y[mm] 	

     0.01000	    0.000	  0.00	  0.00	
     0.02000	    0.000	  0.00	  0.00	
     0.03000	    0.000	  0.00	  0.00	
     0.04000	    0.000	  0.00	  0.00	
     0.05000	    0.000	  0.00	  0.00	
     0.06000	    0.000	  0.00	  0.00	
     0.07000	    0.000	  0.00	  0.00	
     0.08000	    0.000	  0.00	  0.00	
     0.09000	    0.000	  0.00	  0.00	
     0.10000	    0.000	  0.00	  0.00	
     0.11000	    0.000	  0.00	  0.00	
     0.12000	    0.000	  0.00	  0.00	
     0.13000	    0.000	  0.00	  0.00	
     0.14000	    0.000	  0.00	  0.00	
     0.15000	    0.000	  0.00	  0.00	
     0.16000	    0.000	  0.00	  0.00	
     0.17000	    0.000	  0.00	  0.00	
     0.18000	    0.000	  0.00	  0.00	
     0.19000	    0.000	  0.00	  0.00	
     0.20000	    0.000	  0.00	  0.00	
     0.21000	    0.000	  0.00	  0.00	
     0.22000	    0.000	  0.00	  0.00	
     0.23000	    0.000	  0.00	  0.00	
     0.24000	    0.000	  0.00	  0.00	
     0.25000	    0.000	  0.00	  0.00	
     0.26000	    0.000	  0.00	  0.00	
     0.27000	    0.000	  0.00	  0.00	
     0.28000	    0.000	  0.00	  0.00	
     0.29000	    0.000	  0.00	  0.00	
     0.30000	    0.000	  0.00	  0.00	
     0.31000	    0.000	  0.00	  0.00	
     0.32000	    0.000	  0.00	  0.00	
     0.33000	    0.000	  0.00	  0.00	
     0.34000	    0.000	  0.00	  0.00	
     0.35000	    0.000	  0.00	  0.00	
     0.36000	    0.000	  0.00	  0.00	
     0.37000	    0.000	  0.00	  0.00	
     0.38000	    0.000	  0.00	  0.00	
     0.39000	    0.000	  0.00	  0.00	
     0.40000	    0.000	  0.00	  0.00	
     0.41000	    0.000	  0.00	  0.00	
     0.42000	    0.000	  0.00	  0.00	
     0.43000	    0.000	  0.00	  0.00	
     0.44000	    0.000	  0.00	  0.00	
     0.45000	    0.000	  0.00	  0.00	
     0.46000	    0.000	  0.00	  0.00	
     0.47000	    0.000	  0.00	  0.00	
     0.48000	    0.000	  0.00	  0.00	
     0.49000	    0.000	  0.00	  0.00	
     0.50000	    0.000	  0.00	  0.00	
     0.51000	    0.000	  0.00	  0.00	
     0.52000	    0.000	  0.00	  0.00	
     0.53000	    0.000	  0.00	  0.00	
     0.54000	    0.000	  0.00	  0.00	
     0.55000	    0.000	  0.00	  0.00	
     0.56000	    0.000	  0.00	  0.00	
     0.57000	    0.000	  0.00	  0.00	
     0.58000	    0.000	  0.00	  0.00	
     0.59000	    0.000	  0.00	  0.00	
     0.60000	    0.000	  0.00	  0.00	
     0.61000	    0.000	  0.00	  0.00	
     0.62000	    0.000	  0.00	  0.00	
     0.63000	    0.000	  0.00	  0.00	
     0.64000	    0.000	  0.00	  0.00	
     0.65000	    0.000	  0.00	  0.00	
     0.66000	    0.000	  0.00	  0.00	
     0.67000	    0.000	  0.00	  0.00	
     0.68000	    0.000	  0.00	  0.00	
     0.69000	    0.000	  0.00	  0.00	
     0.70000	    0.000	  0.00	  0.00	
     0.71000	    0.000	  0.00	  0.00	
     0.72000	    0.000	  0.00	  0.00	
     0.73000	    0.000	  0.00	  0.00	
     0.74000	    0.000	  0.00	  0.00	
     0.75000	    0.000	  0.00	  0.00	
     0.76000	    0.000	  0.00	  0.00	
     0.77000	    0.000	  0.00	  0.00	
     0.78000	    0.000	  0.00	  0.00	
     0.79000	    0.000	  0.00	  0.00	
     0.80000	    0.000	  0.00	  0.00	
     0.81000	    0.000	  0.00	  0.00	
     0.82000	    0.000	  0.00	  0.00	
     0.83000	    0.000	  0.00	  0.00	
     0.84000	    0.000	  0.00	  0.00	
     0.85000	    0.000	  0.00	  0.00	
     0.86000	    0.000	  0.00	  0.00	
     0.87000	    0.000	  0.00	  0.00	
     0.88000	    0.000	  0.00	  0.00	
     0.89000	    0.000	  0.00	  0.00	
     0.90000	    0.000	  0.00	  0.00	
     0.91000	    0.000	  0.00	  0.00	
     0.92000	    0.000	  0.00	  0.00	
     0.93000	    0.000	  0.00	  0.00	
     0.94000	    0.000	  0.00	  0.00	
     0.95000	    0.000	  0.00	  0.00	
     0.96000	    0.000	  0.00	  0.00	
     0.97000	    0.000	  0.00	  0.00	
     0.98000	    0.000	  0.00	  0.00	
     0.99000	    0.000	  0.00	  0.00	
     1.00000	    0.000	  0.00	  0.00	
     1.01000	    0.000	  0.00	  0.00	
     1.02000	    0.000	  0.00	  0.00	
     1.03000	    0.000	  0.00	  0.00	
     1.04000	    0.000	  0.00	  0.00	
     1.05000	    0.000	  0.00	  0.00	
     1.06000	    0.000	  0.00	  0.00	
     1.07000	    0.000	  0.00	  0.00	
     1.08000	    0.000	  0.00	  0.00	
     1.09000	    0.000	  0.00	  0.00	
     1.10000	    0.000	  0.00	  0.00	
     1.11000	    0.000	  0.00	  0.00	
     1.12000	    0.000	  0.00	  0.00	
     1.13000	    0.000	  0.00	  0.00	
     1.14000	    0.000	  0.00	  0.00	
     1.15000	    0.000	  0.00	  0.00	
     1.16000	    0.000	  0.00	  0.00	
     1.17000	    0.000	  0.00	  0.00	
     1.18000	    0.000	  0.00	  0.00	
     1.19000	    0.000	  0.00	  0.00	
     1.20000	    0.000	  0.00	  0.00	
     1.21000	    0.000	  0.00	  0.00	
     1.22000	    0.000	  0.00	  0.00	
     1.23000	    0.000	  0.00	  0.00	
     1.24000	    0.000	  0.00	  0.00	
     1.25000	    0.000	  0.00	  0.00	
     1.26000	    0.000	  0.00	  0.00	
     1.27000	    0.000	  0.00	  0.00	
     1.28000	    0.000	  0.00	  0.00	
     1.29000	    0.000	  0.00	  0.00	
     1.30000	    0.000	  0.00	  0.00	
     1.31000	    0.000	  0.00	  0.00	
     1.32000	    0.000	  0.00	  0.00	
     1.33000	    0.000	  0.00	  0.00	
     1.34000	    0.000	  0.00	  0.00	
     1.35000	    0.000	  0.00	  0.00	
     1.36000	    0.000	  0.00	  0.00	
     1.37000	    0.000	  0.00	  0.00	
     1.38000	    0.000	  0.00	  0.00	
     1.39000	    0.000	  0.00	  0.00	
     1.40000	    0.000	  0.00	  0.00	
     1.41000	    0.000	  0.00	  0.00	
     1.42000	    0.000	  0.00	  0.00	
     1.43000	    0.000	  0.00	  0.00	
     1.44000	    0.000	  0.00	  0.00	
     1.45000	    0.000	  0.00	  0.00	
     1.46000	    0.000	  0.00	  0.00	
     1.47000	    0.000	  0.00	  0.00	
     1.48000	    0.000	  0.00	  0.00	
     1.49000	    0.000	  0.00	  0.00	
     1.50000	    0.000	  0.00	  0.00	
     1.51000	    0.000	  0.00	  0.00	
     1.52000	    0.000	  0.00	  0.00	
     1.53000	    0.000	  0.00	  0.00	
     1.54000	    0.000	  0.00	  0.00	
     1.55000	    0.000	  0.00	  0.00	
     1.56000	    0.000	  0.00	  0.00	
     1.57000	    0.000	  0.00	  0.00	
     1.58000	    0.000	  0.00	  0.00	
     1.59000	    0.000	  0.00	  0.00	
     1.60000	    0.000	  0.00	  0.00	
     1.61000	    0.000	  0.00	  0.00	
     1.62000	    0.000	  0.00	  0.00	
     1.63000	    0.000	  0.00	  0.00	
     1.64000	    0.000	  0.00	  0.00	
     1.65000	    0.000	  0.00	  0.00	
     1.66000	    0.000	  0.00	  0.00	
     1.67000	    0.000	  0.00	  0.00	
     1.68000	    0.000	  0.00	  0.00	
     1.69000	    0.000	  0.00	  0.00	
     1.70000	    0.000	  0.00	  0.00	
     1.71000	    0.000	  0.00	  0.00	
     1.72000	    0.000	  0.00	  0.00	
     1.73000	    0.000	  0.00	  0.00	
     1.74000	    0.000	  0.00	  0.00	
     1.75000	    0.000	  0.00	  0.00	
     1.76000	    0.000	  0.00	  0.00	
     1.77000	    0.000	  0.00	  0.00	
     1.78000	    0.000	  0.00	  0.00	
     1.79000	    0.000	  0.00	  0.00	
     1.80000	    0.000	  0.00	  0.00	
     1.81000	    0.000	  0.00	  0.00	
     1.82000	    0.000	  0.00	  0.00	
     1.83000	    0.000	  0.00	  0.00	
     1.84000	    0.000	  0.00	  0.00	
     1.85000	    0.000	  0.00	  0.00	
     1.86000	    0.000	  0.00	  0.00	
     1.87000	    0.000	  0.00	  0.00	
     1.88000	    0.000	  0.00	  0.00	
     1.89000	    0.000	  0.00	  0.00	
     1.90000	    0.000	  0.00	  0.00	
     1.91000	    0.000	  0.00	  0.00	
     1.92000	    0.000	  0.00	  0.00	
     1.93000	    0.000	  0.00	  0.00	
     1.94000	    0.000	  0.00	  0.00	
     1.95000	    0.000	  0.00	  0.00	
     1.96000	    0.000	  0.00	  0.00	
     1.97000	    0.000	  0.00	  0.00	
     1.98000	    0.000	  0.00	  0.00	
     1.99000	    0.000	  0.00	  0.00	
     2.00000	    0.000	  0.00	  0.00	
     2.01000	    0.000	  0.00	  0.00	
     2.02000	    0.000	  0.00	  0.00	
     2.03000	    0.000	  0.00	  0.00	
     2.04000	    0.000	  0.00	  0.00	
     2.05000	    0.000	  0.00	  0.00	
     2.06000	    0.000	  0.00	  0.00	
     2.07000	    0.000	  0.00	  0.00	
     2.08000	    0.000	  0.00	  0.00	
     2.09000	    0.000	  0.00	  0.00	
     2.10000	    0.000	  0.00	  0.00	
     2.11000	    0.000	  0.00	  0.00	
     2.12000	    0.000	  0.00	  0.00	
     2.13000	    0.000	  0.00	  0.00	
     2.14000	    0.000	  0.00	  0.00	
     2.15000	    0.000	  0.00	  0.00	
     2.16000	    0.000	  0.00	  0.00	
     2.17000	    0.000	  0.00	  0.00	
     2.18000	    0.000	  0.00	  0.00	
     2.19000	    0.000	  0.00	  0.00	
     2.20000	    0.000	  0.00	  0.00	
     2.21000	    0.000	  0.00	  0.00	
     2.22000	    0.000	  0.00	  0.00	
     2.23000	    0.000	  0.00	  0.00	
     2.24000	    0.000	  0.00	  0.00	
     2.25000	    0.000	  0.00	  0.00	
     2.26000	    0.000	  0.00	  0.00	
     2.27000	    0.000	  0.00	  0.00	
     2.28000	    0.000	  0.00	  0.00	
     2.29000	    0.000	  0.00	  0.00	
     2.30000	    0.000	  0.00	  0.00	
     2.31000	    0.000	  0.00	  0.00	
     2.32000	    0.000	  0.00	  0.00	
     2.33000	    0.000	  0.00	  0.00	
     2.34000	    0.000	  0.00	  0.00	
     2.35000	    0.000	  0.00	  0.00	
     2.36000	    0.000	  0.00	  0.00	
     2.37000	    0.000	  0.00	  0.00	
     2.38000	    0.000	  0.00	  0.00	
     2.39000	    0.000	  0.00	  0.00	
     2.40000	    0.000	  0.00	  0.00	
     2.41000	    0.000	  0.00	  0.00	
     2.42000	    0.000	  0.00	  0.00	
     2.43000	    0.000	  0.00	  0.00	
     2.44000	    0.000	  0.00	  0.00	
     2.45000	    0.000	  0.00	  0.00	
     2.46000	    0.000	  0.00	  0.00	
     2.47000	    0.000	  0.00	  0.00	
     2.48000	    0.000	  0.00	  0.00	
     2.49000	    0.000	  0.00	  0.00	
     2.50000	    0.000	  0.00	  0.00	
     2.51000	    0.000	  0.00	  0.00	
     2.52000	    0.000	  0.00	  0.00	
     2.53000	    0.000	  0.00	  0.00	
     2.54000	    0.000	  0.00	  0.00	
     2.55000	    0.000	  0.00	  0.00	
     2.56000	    0.000	  0.00	  0.00	
     2.57000	    0.000	  0.00	  0.00	
     2.58000	    0.000	  0.00	  0.00	
     2.59000	    0.000	  0.00	  0.00	
     2.60000	    0.000	  0.00	  0.00	
     2.61000	    0.000	  0.00	  0.00	
     2.62000	    0.000	  0.00	  0.00	
     2.63000	    0.000	  0.00	  0.00	
     2.64000	    0.000	  0.00	  0.00	
     2.65000	    0.000	  0.00	  0.00	
     2.66000	    0.000	  0.00	  0.00	
     2.67000	    0.000	  0.00	  0.00	
     2.68000	    0.000	  0.00	  0.00	
     2.69000	    0.000	  0.00	  0.00	
     2.70000	    0.000	  0.00	  0.00	
     2.71000	    0.000	  0.00	  0.00	
     2.72000	    0.000	  0.00	  0.00	
     2.73000	    0.000	  0.00	  0.00	
     2.74000	    0.000	  0.00	  0.00	
     2.75000	    0.000	  0.00	  0.00	
     2.76000	    0.000	  0.00	  0.00	
     2.77000	    0.000	  0.00	  0.00	
     2.78000	    0.000	  0.00	  0.00	
     2.79000	    0.000	  0.00	  0.00	
     2.80000	    0.000	  0.00	  0.00	
     2.81000	    0.000	  0.00	  0.00	
     2.82000	    0.000	  0.00	  0.00	
     2.83000	    0.000	  0.00	  0.00	
     2.84000	    0.000	  0.00	  0.00	
     2.85000	    0.000	  0.00	  0.00	
     2.86000	    0.000	  0.00	  0.00	
     2.87000	    0.000	  0.00	  0.00	
     2.88000	    0.000	  0.00	  0.00	
     2.89000	    0.000	  0.00	  0.00	
     2.90000	    0.000	  0.00	  0.00	
     2.91000	    0.000	  0.00	  0.00	
     2.92000	    0.000	  0.00	  0.00	
     2.93000	    0.000	  0.00	  0.00	
     2.94000	    0.000	  0.00	  0.00	
     2.95000	    0.000	  0.00	  0.00	
     2.96000	    0.000	  0.00	  0.00	
     2.97000	    0.000	  0.00	  0.00	
     2.98000	    0.000	  0.00	  0.00	
     2.99000	    0.000	  0.00	  0.00	
     3.00000	    0.000	  0.00	  0.00	
     3.01000	    0.000	  0.00	  0.00	
     3.02000	    0.000	  0.00	  0.00	
     3.03000	    0.000	  0.00	  0.00	
     3.04000	    0.000	  0.00	  0.00	
     3.05000	    0.000	  0.00	  0.00	
     3.06000	    0.000	  0.00	  0.00	
     3.07000	    0.000	  0.00	  0.00	
     3.08000	    0.000	  0.00	  0.00	
     3.09000	    0.000	  0.00	  0.00	
     3.10000	    0.000	  0.00	  0.00	
     3.11000	    0.000	  0.00	  0.00	
     3.12000	    0.000	  0.00	  0.00	
     3.13000	    2.000	 85.00	125.00	
     3.14000	    0.000	  0.00	  0.00	
     3.15000	    8.000	 82.50	115.00	
     3.16000	   12.000	 80.00	110.00	
     3.17000	   12.000	 80.00	110.00	
     3.18000	   12.000	 76.67	110.00	
     3.19000	   14.000	 77.86	109.29	
     3.20000	   14.000	 77.86	109.29	
     3.21000	   12.000	 76.67	106.67	
     3.22000	   14.000	 77.86	109.29	
     3.23000	   12.000	 76.67	110.00	
     3.24000	   12.000	 80.00	110.00	
     3.25000	   12.000	 76.67	110.00	
     3.26000	   14.000	 77.86	109.29	
     3.27000	   14.000	 77.86	109.29	
     3.28000	   14.000	 77.86	109.29	
     3.29000	   16.000	 75.00	107.50	
     3.30000	   12.000	 73.33	106.67	
     3.31000	   16.000	 75.00	107.50	
     3.32000	   16.000	 75.00	107.50	
     3.33000	   14.000	 73.57	105.00	
     3.34000	   16.000	 71.25	102.50	
     3.35000	   18.000	 72.78	105.00	
     3.36000	   18.000	 72.78	105.00	
     3.37000	   18.000	 68.33	100.56	
     3.38000	   18.000	 68.33	100.56	
     3.39000	   18.000	 68.33	100.56	
     3.40000	   16.000	 67.50	 98.75	
     3.41000	   18.000	 68.33	100.56	
     3.42000	   18.000	 68.33	100.56	
     3.43000	   16.500	 67.12	 98.64	
     3.44000	   16.000	 67.50	 98.75	
     3.45000	   16.000	 67.50	 98.75	
     3.46000	   14.000	 63.57	 96.43	
     3.47000	   16.000	 67.50	 98.75	
     3.48000	   16.500	 67.12	 98.64	
     3.49000	   17.000	 66.47	 98.24	
     3.50000	   15.000	 62.67	 96.00	
     3.51000	   19.000	 64.21	 97.89	
     3.52000	   21.000	 65.24	 99.52	
     3.53000	   19.000	 64.21	 97.89	
     3.54000	   17.000	 66.47	 98.24	
     3.55000	   21.000	 65.24	 99.52	
     3.56000	   19.500	 64.49	 98.08	
     3.57000	   19.000	 64.21	 97.89	
     3.58000	   19.500	 64.49	 98.08	
     3.59000	   24.000	 62.08	 95.83	
     3.60000	   22.000	 65.45	 99.55	
     3.61000	   25.000	 62.00	 95.80	
     3.62000	   22.000	 61.82	 96.82	
     3.63000	   25.000	 64.20	 98.60	
     3.64000	   25.500	 62.45	 95.98	
     3.65000	   28.000	 58.93	 91.25	
     3.66000	   30.000	 60.67	 92.83	
     3.67000	   29.500	 58.39	 90.42	
     3.68000	   31.500	 60.08	 91.98	
     3.69000	   33.500	 62.16	 92.76	
     3.70000	   37.500	 63.53	 94.07	
     3.71000	   36.000	 59.58	 89.31	
     3.72000	   38.000	 60.79	 89.74	
     3.73000	   42.000	 60.24	 87.86	
     3.74000	   40.500	 59.57	 86.73	
     3.75000	   41.000	 61.22	 91.10	
     3.76000	   44.000	 59.55	 87.39	
     3.77000	   44.500	 57.81	 82.87	
     3.78000	   48.500	 57.99	 82.63	
     3.79000	   52.500	 56.24	 79.38	
     3.80000	   50.500	 55.50	 77.97	
     3.81000	   53.000	 56.32	 79.53	
     3.82000	   53.000	 56.89	 80.47	
     3.83000	   57.000	 56.93	 79.56	
     3.84000	   55.000	 56.09	 78.45	
     3.85000	   57.500	 57.00	 79.78	
     3.86000	   56.500	 57.04	 79.51	
     3.87000	   57.000	 55.70	 76.49	
     3.88000	   57.500	 55.26	 75.61	
     3.89000	   59.000	 56.02	 77.46	
     3.90000	   57.000	 55.70	 76.14	
     3.91000	   59.000	 56.02	 77.46	
     3.92000	   58.000	 55.69	 76.29	
     3.93000	   61.000	 55.98	 75.00	
     3.94000	   59.000	 56.36	 77.37	
     3.95000	   61.000	 56.39	 75.16	
     3.96000	   63.000	 55.48	 75.56	
     3.97000	   63.000	 55.63	 76.11	
     3.98000	   61.500	 56.22	 75.57	
     3.99000	   59.500	 56.76	 74.41	
     4.00000	   62.500	 56.28	 75.56	
     4.01000	   60.000	 56.25	 77.00	
     4.02000	   58.500	 56.88	 76.54	
     4.03000	   59.000	 57.20	 76.95	
     4.04000	   60.500	 56.74	 75.17	
     4.05000	   61.500	 57.20	 75.49	
     4.06000	   62.500	 55.56	 76.04	
     4.07000	   62.500	 56.36	 74.44	
     4.08000	   67.000	 55.30	 74.78	
     4.09000	   66.500	 56.20	 73.20	
     4.10000	   69.000	 55.72	 72.39	
     4.11000	   75.000	 54.60	 71.27	
     4.12000	   79.500	 54.25	 69.40	
     4.13000	   82.000	 53.60	 66.59	
     4.14000	   84.000	 53.27	 67.02	
     4.15000	   84.000	 52.38	 64.94	
     4.16000	   87.500	 52.37	 64.09	
     4.17000	   91.000	 51.10	 64.40	
     4.18000	   96.000	 50.89	 61.88	
     4.19000	  100.500	 50.52	 62.61	
     4.20000	  104.500	 50.12	 61.70	
     4.21000	  109.500	 50.71	 62.31	
     4.22000	  111.000	 50.63	 62.21	
     4.23000	  117.000	 49.83	 61.41	
     4.24000	  118.000	 50.00	 61.53	
     4.25000	  119.000	 50.21	 60.63	
     4.26000	  122.000	 50.20	 60.86	
     4.27000	  129.000	 50.81	 61.28	
     4.28000	  124.500	 51.47	 61.75	
     4.29000	  130.500	 51.13	 60.90	
     4.30000	  130.000	 51.19	 61.00	
     4.31000	  134.500	 50.72	 61.51	
     4.32000	  133.000	 51.05	 60.90	
     4.33000	  132.500	 50.85	 60.92	
     4.34000	  138.500	 50.31	 61.06	
     4.35000	  142.000	 49.58	 59.65	
     4.36000	  143.500	 49.56	 59.84	
     4.37000	  148.500	 49.38	 60.32	
     4.38000	  149.500	 49.41	 60.22	
     4.39000	  148.000	 49.70	 59.63	
     4.40000	  155.500	 49.50	 60.40	
     4.41000	  155.500	 49.18	 59.86	
     4.42000	  154.500	 49.08	 60.15	
     4.43000	  155.000	 49.23	 59.94	
     4.44000	  157.500	 49.51	 60.68	
     4.45000	  157.500	 49.38	 60.62	
     4.46000	  158.500	 49.42	 60.93	
     4.47000	  153.500	 49.72	 61.16	
     4.48000	  149.500	 50.28	 61.76	
     4.49000	  144.000	 50.21	 63.09	
     4.50000	  143.500	 50.44	 63.54	
     4.51000	  144.500	 50.57	 63.86	
     4.52000	  142.500	 50.93	 64.54	
     4.53000	  145.000	 50.48	 64.10	
     4.54000	  144.500	 50.64	 63.10	
     4.55000	  140.500	 51.37	 63.65	
     4.56000	  140.500	 50.91	 63.93	
     4.57000	  136.500	 50.79	 63.83	
     4.58000	  132.500	 50.32	 62.89	
     4.59000	  130.500	 50.29	 62.74	
     4.60000	  128.000	 50.31	 62.97	
     4.61000	  127.000	 50.39	 62.95	
     4.62000	  128.500	 51.30	 64.53	
     4.63000	  128.000	 50.39	 64.02	
     4.64000	  124.000	 51.01	 64.03	
     4.65000	  123.500	 50.95	 64.15	
     4.66000	  126.500	 51.88	 65.63	
     4.67000	  121.500	 51.79	 65.04	
     4.68000	  125.000	 51.84	 65.64	
     4.69000	  122.000	 51.19	 64.55	
     4.70000	  125.000	 51.84	 65.92	
     4.71000	  125.500	 51.97	 65.80	
     4.72000	  124.000	 51.90	 65.73	
     4.73000	  124.000	 52.50	 66.94	
     4.74000	  121.000	 51.49	 65.66	
     4.75000	  121.500	 51.50	 65.62	
     4.76000	  119.000	 51.76	 65.17	
     4.77000	  116.000	 51.72	 65.47	
     4.78000	  114.500	 51.46	 65.61	
     4.79000	  114.000	 51.40	 65.61	
     4.80000	  108.500	 51.68	 64.59	
     4.81000	  108.500	 51.18	 64.72	
     4.82000	  106.000	 52.41	 65.14	
     4.83000	  106.000	 51.79	 63.49	
     4.84000	  101.000	 52.18	 62.43	
     4.85000	   93.500	 51.20	 62.59	
     4.86000	   89.500	 51.20	 61.26	
     4.87000	   88.000	 51.25	 61.08	
     4.88000	   86.000	 51.34	 61.28	
     4.89000	   85.000	 51.65	 61.35	
     4.90000	   82.000	 52.44	 60.37	
     4.91000	   81.500	 52.61	 60.52	
     4.92000	   77.500	 52.94	 60.68	
     4.93000	   75.500	 52.75	 60.30	
     4.94000	   73.000	 52.74	 59.52	
     4.95000	   68.500	 52.08	 57.85	
     4.96000	   59.000	 52.63	 53.98	
     4.97000	   53.500	 48.55	 49.02	
     4.98000	   52.000	 48.46	 48.56	
     4.99000	   49.000	 48.37	 49.90	
     5.00000	   44.500	 48.93	 48.15	
     5.01000	   39.500	 48.42	 46.01	
     5.02000	   33.000	 46.21	 45.15	
     5.03000	   32.000	 44.53	 45.16	
     5.04000	   26.500	 45.38	 44.62	
     5.05000	   22.500	 48.11	 51.22	
     5.06000	   12.000	 43.33	 30.00	
     5.07000	    8.000	 45.00	 67.50	
     5.08000	    2.000	 25.00	 45.00	
     5.09000	    2.000	 65.00	 95.00	
     5.10000	    4.000	 55.00	 90.00	
     5.11000	    2.000	 45.00	 85.00	
     5.12000	    2.000	 45.00	 85.00	
     5.13000	    2.000	 45.00	 85.00	
     5.14000	    2.000	 45.00	 85.00	
     5.15000	    0.000	  0.00	  0.00	
     5.16000	    0.000	  0.00	  0.00	
     5.17000	    0.000	  0.00	  0.00	
     5.18000	    0.000	  0.00	  0.00	
     5.19000	    0.000	  0.00	  0.00	
     5.20000	    0.000	  0.00	  0.00	
     5.21000	    0.000	  0.00	  0.00	
     5.22000	    0.000	  0.00	  0.00	
     5.23000	    0.000	  0.00	  0.00	
     5.24000	    0.000	  0.00	  0.00	
     5.25000	    0.000	  0.00	  0.00	
     5.26000	    0.000	  0.00	  0.00	
     5.27000	    2.000	 75.00	  5.00	
     5.28000	    2.500	 75.00	  5.00	
     5.29000	    2.500	 75.00	  5.00	
     5.30000	    2.500	 75.00	  5.00	
     5.31000	    3.000	 75.00	  5.00	
     5.32000	    3.000	 75.00	  5.00	
     5.33000	    3.000	 75.00	  5.00	
     5.34000	    3.500	 75.00	  5.00	
     5.35000	    4.000	 75.00	  5.00	
     5.36000	    4.000	 75.00	  5.00	
     5.37000	    4.500	 75.00	  5.00	
     5.38000	    4.500	 75.00	  5.00	
     5.39000	    4.500	 75.00	  5.00	
     5.40000	    4.000	 75.00	  5.00	
     5.41000	    4.000	 75.00	  5.00	
     5.42000	    3.500	 75.00	  5.00	
     5.43000	    5.500	 64.09	 34.09	
     5.44000	    5.000	 63.00	 37.00	
     5.45000	    5.500	 61.36	 41.36	
     5.46000	    7.000	 58.57	 56.43	
     5.47000	    4.500	 58.33	 49.44	
     5.48000	    4.500	 49.44	 85.00	
     5.49000	    2.500	 45.00	 85.00	
     5.50000	    4.500	 45.00	 80.56	
     5.51000	    4.500	 45.00	 80.56	
     5.52000	    5.000	 45.00	 80.00	
     5.53000	    5.000	 45.00	 80.00	
     5.54000	    5.000	 45.00	 80.00	
     5.55000	    5.000	 45.00	 80.00	
     5.56000	    5.000	 45.00	 80.00	
     5.57000	    5.000	 45.00	 80.00	
     5.58000	    5.000	 45.00	 80.00	
     5.59000	    5.000	 45.00	 80.00	
     5.60000	    5.000	 45.00	 80.00	
     5.61000	    4.000	 45.00	 80.00	
     5.62000	    2.000	 45.00	 85.00	
     5.63000	    0.000	  0.00	  0.00	
     5.64000	    0.000	  0.00	  0.00	
     5.65000	    0.000	  0.00	  0.00	
     5.66000	    0.000	  0.00	  0.00	
     5.67000	    0.000	  0.00	  0.00	
     5.68000	    0.000	  0.00	  0.00	
     5.69000	    0.000	  0.00	  0.00	
     5.70000	    0.000	  0.00	  0.00	
     5.71000	    0.000	  0.00	  0.00	
     5.72000	    0.000	  0.00	  0.00	
     5.73000	    0.000	  0.00	  0.00	
     5.74000	    0.000	  0.00	  0.00	
     5.75000	    0.000	  0.00	  0.00	
     5.76000	    0.000	  0.00	  0.00	
     5.77000	    0.000	  0.00	  0.00	
     5.78000	    0.000	  0.00	  0.00	
     5.79000	    0.000	  0.00	  0.00	
     5.80000	    0.000	  0.00	  0.00	
     5.81000	    0.000	  0.00	  0.00	
     5.82000	    0.000	  0.00	  0.00	
     5.83000	    0.000	  0.00	  0.00	
     5.84000	    0.000	  0.00	  0.00	
     5.85000	    0.000	  0.00	  0.00	
     5.86000	    0.000	  0.00	  0.00	
     5.87000	    0.000	  0.00	  0.00	
     5.88000	    0.000	  0.00	  0.00	
     5.89000	    0.000	  0.00	  0.00	
     5.90000	    0.000	  0.00	  0.00	
     5.91000	    0.000	  0.00	  0.00	
     5.92000	    0.000	  0.00	  0.00	
     5.93000	    0.000	  0.00	  0.00	
     5.94000	    0.000	  0.00	  0.00	
     5.95000	    0.000	  0.00	  0.00	
     5.96000	    0.000	  0.00	  0.00	
     5.97000	    0.000	  0.00	  0.00	
     5.98000	    0.000	  0.00	  0.00	
     5.99000	    0.000	  0.00	  0.00	
     6.00000	    0.000	  0.00	  0.00	
     6.01000	    0.000	  0.00	  0.00	
     6.02000	    0.000	  0.00	  0.00	
     6.03000	    0.000	  0.00	  0.00	
     6.04000	    0.000	  0.00	  0.00	
     6.05000	    0.000	  0.00	  0.00	
     6.06000	    0.000	  0.00	  0.00	
     6.07000	    0.000	  0.00	  0.00	
     6.08000	    0.000	  0.00	  0.00	
     6.09000	    0.000	  0.00	  0.00	
     6.10000	    0.000	  0.00	  0.00	
     6.11000	    0.000	  0.00	  0.00	
     6.12000	    0.000	  0.00	  0.00	
     6.13000	    0.000	  0.00	  0.00	
     6.14000	    0.000	  0.00	  0.00	
     6.15000	    0.000	  0.00	  0.00	
     6.16000	    0.000	  0.00	  0.00	
     6.17000	    0.000	  0.00	  0.00	
     6.18000	    0.000	  0.00	  0.00	
     6.19000	    0.000	  0.00	  0.00	
     6.20000	    0.000	  0.00	  0.00	
     6.21000	    0.000	  0.00	  0.00	
     6.22000	    0.000	  0.00	  0.00	
     6.23000	    0.000	  0.00	  0.00	
     6.24000	    0.000	  0.00	  0.00	
     6.25000	    0.000	  0.00	  0.00	
     6.26000	    0.000	  0.00	  0.00	
     6.27000	    0.000	  0.00	  0.00	
     6.28000	    0.000	  0.00	  0.00	
     6.29000	    0.000	  0.00	  0.00	
     6.30000	    0.000	  0.00	  0.00	
     6.31000	    0.000	  0.00	  0.00	
     6.32000	    0.000	  0.00	  0.00	
     6.33000	    0.000	  0.00	  0.00	
     6.34000	    0.000	  0.00	  0.00	
     6.35000	    0.000	  0.00	  0.00	
     6.36000	    0.000	  0.00	  0.00	
     6.37000	    0.000	  0.00	  0.00	
     6.38000	    0.000	  0.00	  0.00	
     6.39000	    0.000	  0.00	  0.00	
     6.40000	    0.000	  0.00	  0.00	
     6.41000	    0.000	  0.00	  0.00	
     6.42000	    0.000	  0.00	  0.00	
     6.43000	    0.000	  0.00	  0.00	
     6.44000	    0.000	  0.00	  0.00	
     6.45000	    0.000	  0.00	  0.00	
     6.46000	    0.000	  0.00	  0.00	
     6.47000	    2.000	 65.00	 95.00	
     6.48000	    2.000	 65.00	 95.00	
     6.49000	    2.000	 65.00	 95.00	
     6.50000	    2.000	 65.00	 95.00	
     6.51000	    4.000	 65.00	 90.00	
     6.52000	    8.000	 60.00	 90.00	
     6.53000	   10.000	 61.00	 93.00	
     6.54000	   10.000	 61.00	 93.00	
     6.55000	   12.000	 63.33	 95.00	
     6.56000	   12.000	 63.33	 95.00	
     6.57000	   12.500	 63.40	 95.00	
     6.58000	   14.500	 60.86	 93.62	
     6.59000	   14.500	 60.86	 93.62	
     6.60000	   16.500	 62.58	 93.79	
     6.61000	   17.000	 62.35	 93.82	
     6.62000	   19.000	 64.74	 93.95	
     6.63000	   17.000	 62.35	 93.82	
     6.64000	   17.500	 62.71	 94.14	
     6.65000	   17.500	 62.43	 93.86	
     6.66000	   18.500	 62.84	 94.46	
     6.67000	   21.500	 65.23	 94.30	
     6.68000	   21.500	 65.23	 94.30	
     6.69000	   21.500	 65.23	 94.30	
     6.70000	   21.500	 63.37	 92.44	
     6.71000	   26.000	 61.15	 89.62	
     6.72000	   26.500	 60.85	 89.53	
     6.73000	   26.500	 60.85	 89.53	
     6.74000	   29.000	 59.66	 90.00	
     6.75000	   26.500	 61.04	 89.72	
     6.76000	   27.500	 60.82	 89.73	
     6.77000	   29.500	 59.75	 89.92	
     6.78000	   31.500	 60.08	 91.51	
     6.79000	   32.000	 60.31	 91.72	
     6.80000	   34.500	 61.81	 92.54	
     6.81000	   39.000	 62.18	 94.49	
     6.82000	   39.000	 62.18	 94.49	
     6.83000	   39.000	 62.18	 94.49	
     6.84000	   39.000	 62.18	 94.49	
     6.85000	   42.000	 63.21	 94.40	
     6.86000	   43.500	 63.51	 94.66	
     6.87000	   46.000	 63.80	 94.46	
     6.88000	   48.000	 63.85	 92.40	
     6.89000	   47.500	 64.26	 94.68	
     6.90000	   53.500	 64.91	 92.38	
     6.91000	   56.500	 63.67	 93.76	
     6.92000	   63.000	 63.33	 90.63	
     6.93000	   69.500	 62.19	 89.89	
     6.94000	   74.000	 62.03	 88.92	
     6.95000	   82.500	 61.85	 85.97	
     6.96000	   83.000	 61.93	 85.30	
     6.97000	   88.500	 61.21	 83.70	
     6.98000	   91.000	 61.10	 83.74	
     6.99000	   96.000	 60.73	 82.24	
     7.00000	  100.000	 60.75	 82.40	
     7.01000	  103.500	 60.27	 81.67	
     7.02000	  108.000	 59.72	 80.37	
     7.03000	  118.500	 59.64	 79.73	
     7.04000	  125.500	 59.66	 79.14	
     7.05000	  129.500	 59.05	 77.90	
     7.06000	  135.000	 59.48	 77.85	
     7.07000	  136.000	 59.34	 77.65	
     7.08000	  140.500	 59.13	 77.38	
     7.09000	  144.000	 59.17	 77.33	
     7.10000	  146.500	 59.16	 77.35	
     7.11000	  148.500	 59.14	 77.36	
     7.12000	  154.000	 59.12	 77.82	
     7.13000	  158.000	 58.70	 76.93	
     7.14000	  163.500	 59.40	 77.91	
     7.15000	  167.500	 58.97	 77.03	
     7.16000	  170.500	 58.96	 76.52	
     7.17000	  175.500	 59.16	 76.17	
     7.18000	  179.500	 59.18	 75.97	
     7.19000	  182.000	 58.93	 75.19	
     7.20000	  186.000	 58.84	 75.03	
     7.21000	  190.000	 58.71	 75.05	
     7.22000	  192.000	 58.78	 74.97	
     7.23000	  195.500	 58.58	 74.23	
     7.24000	  205.500	 58.24	 73.69	
     7.25000	  209.500	 58.13	 73.47	
     7.26000	  210.500	 58.23	 73.27	
     7.27000	  214.000	 58.36	 73.48	
     7.28000	  215.500	 58.27	 73.79	
     7.29000	  220.500	 58.04	 73.41	
     7.30000	  222.000	 58.42	 74.01	
     7.31000	  224.500	 58.52	 74.20	
     7.32000	  236.500	 58.21	 73.54	
     7.33000	  238.000	 58.28	 73.61	
     7.34000	  245.000	 58.53	 73.33	
     7.35000	  249.000	 58.37	 73.17	
     7.36000	  255.000	 58.47	 72.86	
     7.37000	  263.500	 58.17	 72.27	
     7.38000	  268.000	 57.95	 72.22	
     7.39000	  276.000	 57.83	 72.46	
     7.40000	  282.000	 57.89	 72.43	
     7.41000	  287.500	 57.89	 72.39	
     7.42000	  293.000	 58.04	 72.58	
     7.43000	  300.000	 57.92	 72.43	
     7.44000	  310.000	 58.02	 72.24	
     7.45000	  317.000	 58.08	 72.08	
     7.46000	  322.000	 58.25	 72.10	
     7.47000	  326.500	 58.03	 72.08	
     7.48000	  334.500	 58.20	 71.88	
     7.49000	  345.000	 58.23	 71.77	
     7.50000	  351.500	 57.99	 71.50	
     7.51000	  356.000	 58.02	 71.43	
     7.52000	  359.000	 58.08	 71.73	
     7.53000	  360.500	 58.04	 71.57	
     7.54000	  365.500	 57.78	 71.32	
     7.55000	  368.000	 57.46	 71.30	
     7.56000	  369.500	 57.45	 71.45	
     7.57000	  370.500	 57.67	 71.37	
     7.58000	  372.000	 57.38	 71.45	
     7.59000	  373.500	 57.36	 71.52	
     7.60000	  377.500	 57.16	 71.87	
     7.61000	  377.500	 57.23	 72.03	
     7.62000	  383.000	 57.40	 71.89	
     7.63000	  382.000	 57.30	 72.36	
     7.64000	  385.500	 57.26	 72.51	
     7.65000	  383.500	 57.41	 72.59	
     7.66000	  387.000	 57.64	 72.76	
     7.67000	  386.500	 57.90	 72.98	
     7.68000	  384.500	 57.60	 73.18	
     7.69000	  381.500	 58.28	 73.79	
     7.70000	  377.500	 58.07	 74.06	
     7.71000	  375.500	 58.06	 74.07	
     7.72000	  372.500	 58.44	 74.33	
     7.73000	  369.500	 58.18	 74.38	
     7.74000	  360.000	 58.35	 74.71	
     7.75000	  355.500	 58.16	 74.65	
     7.76000	  354.500	 58.55	 75.44	
     7.77000	  352.500	 58.72	 75.75	
     7.78000	  345.000	 59.04	 75.83	
     7.79000	  343.000	 59.39	 76.31	
     7.80000	  338.000	 59.38	 76.55	
     7.81000	  332.500	 59.48	 76.88	
     7.82000	  327.000	 59.39	 77.02	
     7.83000	  320.000	 59.42	 77.03	
     7.84000	  312.500	 59.16	 77.42	
     7.85000	  304.000	 58.78	 77.85	
     7.86000	  297.500	 58.63	 77.79	
     7.87000	  292.000	 58.63	 77.74	
     7.88000	  284.500	 58.73	 77.90	
     7.89000	  275.500	 58.45	 78.07	
     7.90000	  269.500	 58.32	 77.97	
     7.91000	  260.500	 58.57	 78.09	
     7.92000	  253.000	 58.85	 78.04	
     7.93000	  250.000	 58.66	 78.10	
     7.94000	  242.500	 58.30	 77.87	
     7.95000	  226.500	 59.13	 78.29	
     7.96000	  218.500	 59.03	 78.25	
     7.97000	  209.000	 58.54	 78.33	
     7.98000	  204.500	 58.03	 78.01	
     7.99000	  192.000	 58.20	 78.46	
     8.00000	  190.000	 57.53	 78.13	
     8.01000	  182.000	 57.99	 78.43	
     8.02000	  177.000	 57.68	 79.18	
     8.03000	  168.500	 57.14	 77.91	
     8.04000	  162.000	 57.25	 78.15	
     8.05000	  153.500	 57.93	 78.94	
     8.06000	  148.000	 57.43	 77.91	
     8.07000	  141.000	 57.80	 78.79	
     8.08000	  137.500	 58.09	 79.15	
     8.09000	  129.000	 58.49	 81.12	
     8.10000	  123.500	 58.28	 80.83	
     8.11000	  119.500	 58.31	 81.86	
     8.12000	  112.000	 57.41	 80.27	
     8.13000	  104.500	 57.20	 81.17	
     8.14000	  100.500	 57.34	 82.21	
     8.15000	  101.500	 57.46	 82.34	
     8.16000	  105.000	 57.10	 81.38	
     8.17000	  111.500	 57.78	 81.95	
     8.18000	  140.000	 56.00	 76.32	
     8.19000	  166.000	 55.42	 75.09	
     8.20000	  216.500	 55.69	 74.91	
     8.21000	  279.500	 56.63	 75.07	
     8.22000	  362.000	 57.40	 75.15	
     8.23000	  443.000	 57.89	 74.64	
     8.24000	  522.500	 58.23	 74.36	
     8.25000	  593.000	 58.84	 74.94	
     8.26000	  652.000	 59.00	 75.11	
     8.27000	  696.000	 59.19	 75.50	
     8.28000	  730.500	 59.46	 75.79	
     8.29000	  751.500	 59.56	 75.94	
     8.30000	  754.500	 59.59	 76.06	
     8.31000	  742.500	 59.50	 75.94	
     8.32000	  721.500	 59.36	 75.78	
     8.33000	  689.500	 59.21	 75.53	
     8.34000	  651.000	 58.84	 75.36	
     8.35000	  603.000	 58.57	 75.24	
     8.36000	  549.500	 57.91	 74.92	
     8.37000	  499.500	 57.46	 74.44	
     8.38000	  452.500	 56.91	 73.95	
     8.39000	  406.500	 56.14	 73.77	
     8.40000	  361.000	 55.61	 73.03	
     8.41000	  323.500	 54.60	 72.71	
     8.42000	  297.000	 54.12	 72.39	
     8.43000	  269.500	 53.53	 72.16	
     8.44000	  248.500	 53.11	 72.34	
     8.45000	  236.500	 52.44	 71.96	
     8.46000	  226.500	 52.53	 72.00	
     8.47000	  219.500	 52.84	 72.97	
     8.48000	  215.000	 53.05	 73.37	
     8.49000	  209.000	 53.28	 73.64	
     8.50000	  203.500	 53.87	 74.31	
     8.51000	  200.500	 53.75	 73.85	
     8.52000	  190.000	 54.45	 75.08	
     8.53000	  180.500	 54.47	 75.19	
     8.54000	  172.000	 54.74	 75.00	
     8.55000	  163.500	 54.48	 74.33	
     8.56000	  153.500	 53.96	 74.58	
     8.57000	  147.500	 54.59	 74.80	
     8.58000	  133.000	 55.15	 75.00	
     8.59000	  123.500	 54.60	 73.70	
     8.60000	  109.000	 55.05	 75.60	
     8.61000	  101.500	 55.25	 76.53	
     8.62000	   87.000	 54.31	 75.29	
     8.63000	   66.500	 57.03	 76.73	
     8.64000	   61.000	 57.95	 77.79	
     8.65000	   56.000	 58.66	 78.57	
     8.66000	   45.000	 60.22	 79.89	
     8.67000	   42.000	 60.60	 80.95	
     8.68000	   38.000	 61.45	 83.42	
     8.69000	   35.000	 59.71	 77.71	
     8.70000	   28.000	 61.79	 80.89	
     8.71000	   28.000	 61.79	 80.89	
     8.72000	   24.500	 59.08	 79.08	
     8.73000	   22.500	 61.22	 84.78	
     8.74000	   24.500	 62.35	 85.61	
     8.75000	   20.500	 61.83	 83.78	
     8.76000	   19.500	 61.41	 82.95	
     8.77000	   17.500	 57.57	 79.57	
     8.78000	   15.500	 54.03	 77.58	
     8.79000	   15.000	 53.33	 76.67	
     8.80000	   11.500	 46.30	 66.74	
     8.81000	   12.000	 45.42	 67.08	
     8.82000	   12.000	 45.42	 67.08	
     8.83000	   12.000	 45.42	 67.08	
     8.84000	   10.000	 41.50	 61.50	
     8.85000	   10.000	 41.50	 61.50	
     8.86000	   12.000	 42.08	 63.75	
     8.87000	   10.500	 38.81	 60.24	
     8.88000	   11.000	 38.18	 60.91	
     8.89000	    7.000	 28.57	 50.00	
     8.90000	    7.000	 28.57	 50.00	
     8.91000	    9.000	 27.78	 53.33	
     8.92000	    9.500	 27.63	 54.47	
     8.93000	   10.000	 27.50	 55.00	
     8.94000	    9.500	 27.11	 57.63	
     8.95000	    9.500	 27.11	 57.63	
     8.96000	   10.000	 27.00	 58.50	
     8.97000	   10.000	 27.00	 58.50	
     8.98000	   10.000	 27.00	 58.50	
     8.99000	    9.500	 27.11	 57.63	
     9.00000	    7.500	 25.00	 71.67	
     9.01000	    7.000	 25.00	 71.43	
     9.02000	    7.000	 25.00	 71.43	
     9.03000	    6.500	 25.00	 71.15	
     9.04000	    6.500	 25.00	 71.15	
     9.05000	    6.000	 25.00	 70.83	
     9.06000	    6.000	 25.00	 70.83	
     9.07000	    6.000	 25.00	 70.83	
     9.08000	    5.500	 25.00	 70.45	
     9.09000	    5.500	 25.00	 70.45	
     9.10000	    5.000	 25.00	 70.00	
     9.11000	    4.000	 25.00	 70.00	
     9.12000	    4.000	 25.00	 70.00	
     9.13000	    0.000	  0.00	  0.00	
     9.14000	    0.000	  0.00	  0.00	
     9.15000	    0.000	  0.00	  0.00	
     9.16000	    0.000	  0.00	  0.00	
     9.17000	    0.000	  0.00	  0.00	
     9.18000	    0.000	  0.00	  0.00	
     9.19000	    0.000	  0.00	  0.00	
     9.20000	    0.000	  0.00	  0.00	
     9.21000	    0.000	  0.00	  0.00	
     9.22000	    0.000	  0.00	  0.00	
     9.23000	    0.000	  0.00	  0.00	
     9.24000	    0.000	  0.00	  0.00	
     9.25000	    0.000	  0.00	  0.00	
     9.26000	    0.000	  0.00	  0.00	
     9.27000	    0.000	  0.00	  0.00	
     9.28000	    0.000	  0.00	  0.00	
     9.29000	    0.000	  0.00	  0.00	
     9.30000	    0.000	  0.00	  0.00	
     9.31000	    0.000	  0.00	  0.00	
     9.32000	    0.000	  0.00	  0.00	
     9.33000	    0.000	  0.00	  0.00	
     9.34000	    0.000	  0.00	  0.00	
     9.35000	    0.000	  0.00	  0.00	
     9.36000	    0.000	  0.00	  0.00	
     9.37000	    0.000	  0.00	  0.00	
     9.38000	    0.000	  0.00	  0.00	
     9.39000	    0.000	  0.00	  0.00	
     9.40000	    0.000	  0.00	  0.00	
     9.41000	    0.000	  0.00	  0.00	
     9.42000	    0.000	  0.00	  0.00	
     9.43000	    0.000	  0.00	  0.00	
     9.44000	    0.000	  0.00	  0.00	
     9.45000	    0.000	  0.00	  0.00	
     9.46000	    0.000	  0.00	  0.00	
     9.47000	    0.000	  0.00	  0.00	
     9.48000	    0.000	  0.00	  0.00	
     9.49000	    0.000	  0.00	  0.00	
     9.50000	    0.000	  0.00	  0.00	
     9.51000	    0.000	  0.00	  0.00	
     9.52000	    0.000	  0.00	  0.00	
     9.53000	    0.000	  0.00	  0.00	
     9.54000	    0.000	  0.00	  0.00	
     9.55000	    0.000	  0.00	  0.00	
     9.56000	    0.000	  0.00	  0.00	
     9.57000	    0.000	  0.00	  0.00	
     9.58000	    0.000	  0.00	  0.00	
     9.59000	    0.000	  0.00	  0.00	
     9.60000	    0.000	  0.00	  0.00	
     9.61000	    0.000	  0.00	  0.00	
     9.62000	    0.000	  0.00	  0.00	
     9.63000	    0.000	  0.00	  0.00	
     9.64000	    0.000	  0.00	  0.00	
     9.65000	    0.000	  0.00	  0.00	
     9.66000	    0.000	  0.00	  0.00	
     9.67000	    0.000	  0.00	  0.00	
     9.68000	    0.000	  0.00	  0.00	
     9.69000	    0.000	  0.00	  0.00	
     9.70000	    0.000	  0.00	  0.00	
     9.71000	    0.000	  0.00	  0.00	
     9.72000	    0.000	  0.00	  0.00	
     9.73000	    0.000	  0.00	  0.00	
     9.74000	    0.000	  0.00	  0.00	
     9.75000	    0.000	  0.00	  0.00	
     9.76000	    0.000	  0.00	  0.00	
     9.77000	    0.000	  0.00	  0.00	
     9.78000	    0.000	  0.00	  0.00	
     9.79000	    0.000	  0.00	  0.00	
     9.80000	    0.000	  0.00	  0.00	
     9.81000	    0.000	  0.00	  0.00	
     9.82000	    0.000	  0.00	  0.00	
     9.83000	    0.000	  0.00	  0.00	
     9.84000	    0.000	  0.00	  0.00	
     9.85000	    0.000	  0.00	  0.00	
     9.86000	    0.000	  0.00	  0.00	
     9.87000	    0.000	  0.00	  0.00	
     9.88000	    0.000	  0.00	  0.00	
     9.89000	    0.000	  0.00	  0.00	
     9.90000	    0.000	  0.00	  0.00	
     9.91000	    0.000	  0.00	  0.00	
     9.92000	    0.000	  0.00	  0.00	
     9.93000	    0.000	  0.00	  0.00	
     9.94000	    0.000	  0.00	  0.00	
     9.95000	    0.000	  0.00	  0.00	
     9.96000	    0.000	  0.00	  0.00	
     9.97000	    0.000	  0.00	  0.00	
     9.98000	    0.000	  0.00	  0.00	
     9.99000	    0.000	  0.00	  0.00	
    10.00000	    0.000	  0.00	  0.00	
    10.01000	    0.000	  0.00	  0.00	
    10.02000	    0.000	  0.00	  0.00	
    10.03000	    0.000	  0.00	  0.00	
    10.04000	    0.000	  0.00	  0.00	
    10.05000	    0.000	  0.00	  0.00	
    10.06000	    0.000	  0.00	  0.00	
    10.07000	    0.000	  0.00	  0.00	
    10.08000	    0.000	  0.00	  0.00	
    10.09000	    0.000	  0.00	  0.00	
    10.10000	    0.000	  0.00	  0.00	
    10.11000	    0.000	  0.00	  0.00	
    10.12000	    0.000	  0.00	  0.00	
    10.13000	    0.000	  0.00	  0.00	
    10.14000	    0.000	  0.00	  0.00	
    10.15000	    0.000	  0.00	  0.00	
    10.16000	    0.000	  0.00	  0.00	
    10.17000	    0.000	  0.00	  0.00	
    10.18000	    0.000	  0.00	  0.00	
    10.19000	    0.000	  0.00	  0.00	
    10.20000	    0.000	  0.00	  0.00	
    10.21000	    0.000	  0.00	  0.00	
    10.22000	    0.000	  0.00	  0.00	
    10.23000	    0.000	  0.00	  0.00	
    10.24000	    0.000	  0.00	  0.00	
    10.25000	    0.000	  0.00	  0.00	
    10.26000	    0.000	  0.00	  0.00	
    10.27000	    0.000	  0.00	  0.00	
    10.28000	    0.000	  0.00	  0.00	
    10.29000	    0.000	  0.00	  0.00	
    10.30000	    0.000	  0.00	  0.00	
    10.31000	    0.000	  0.00	  0.00	
    10.32000	    0.000	  0.00	  0.00	
    10.33000	    0.000	  0.00	  0.00	
    10.34000	    0.000	  0.00	  0.00	
    10.35000	    0.000	  0.00	  0.00	
    10.36000	    0.000	  0.00	  0.00	
    10.37000	    0.000	  0.00	  0.00	
    10.38000	    0.000	  0.00	  0.00	
    10.39000	    0.000	  0.00	  0.00	
    10.40000	    0.000	  0.00	  0.00	
    10.41000	    0.000	  0.00	  0.00	
    10.42000	    0.000	  0.00	  0.00	
    10.43000	    0.000	  0.00	  0.00	
    10.44000	    0.000	  0.00	  0.00	
    10.45000	    0.000	  0.00	  0.00	
    10.46000	    0.000	  0.00	  0.00	
    10.47000	    0.000	  0.00	  0.00	
    10.48000	    0.000	  0.00	  0.00	
    10.49000	    0.000	  0.00	  0.00	
    10.50000	    0.000	  0.00	  0.00	
    10.51000	    0.000	  0.00	  0.00	
    10.52000	    0.000	  0.00	  0.00	
    10.53000	    0.000	  0.00	  0.00	
    10.54000	    0.000	  0.00	  0.00	
    10.55000	    0.000	  0.00	  0.00	
    10.56000	    0.000	  0.00	  0.00	
    10.57000	    0.000	  0.00	  0.00	
    10.58000	    0.000	  0.00	  0.00	
    10.59000	    0.000	  0.00	  0.00	
    10.60000	    0.000	  0.00	  0.00	
    10.61000	    0.000	  0.00	  0.00	
    10.62000	    0.000	  0.00	  0.00	
    10.63000	    0.000	  0.00	  0.00	
    10.64000	    0.000	  0.00	  0.00	
    10.65000	    0.000	  0.00	  0.00	
    10.66000	    0.000	  0.00	  0.00	
    10.67000	    0.000	  0.00	  0.00	
    10.68000	    0.000	  0.00	  0.00	
    10.69000	    0.000	  0.00	  0.00	
    10.70000	    0.000	  0.00	  0.00	
    10.71000	    0.000	  0.00	  0.00	
    10.72000	    0.000	  0.00	  0.00	
    10.73000	    0.000	  0.00	  0.00	
    10.74000	    0.000	  0.00	  0.00	
    10.75000	    0.000	  0.00	  0.00	
    10.76000	    0.000	  0.00	  0.00	
    10.77000	    0.000	  0.00	  0.00	
    10.78000	    0.000	  0.00	  0.00	
    10.79000	    0.000	  0.00	  0.00	
    10.80000	    0.000	  0.00	  0.00	
    10.81000	    0.000	  0.00	  0.00	
    10.82000	    0.000	  0.00	  0.00	
    10.83000	    0.000	  0.00	  0.00	
    10.84000	    0.000	  0.00	  0.00	
    10.85000	    0.000	  0.00	  0.00	
    10.86000	    0.000	  0.00	  0.00	
    10.87000	    0.000	  0.00	  0.00	
    10.88000	    0.000	  0.00	  0.00	
    10.89000	    0.000	  0.00	  0.00	
    10.90000	    0.000	  0.00	  0.00	
    10.91000	    0.000	  0.00	  0.00	
    10.92000	    0.000	  0.00	  0.00	
    10.93000	    0.000	  0.00	  0.00	
    10.94000	    0.000	  0.00	  0.00	
    10.95000	    0.000	  0.00	  0.00	
    10.96000	    0.000	  0.00	  0.00	
    10.97000	    0.000	  0.00	  0.00	
    10.98000	    0.000	  0.00	  0.00	
    10.99000	    0.000	  0.00	  0.00	
    11.00000	    0.000	  0.00	  0.00	
    11.01000	    0.000	  0.00	  0.00	
    11.02000	    0.000	  0.00	  0.00	
    11.03000	    0.000	  0.00	  0.00	
    11.04000	    0.000	  0.00	  0.00	
    11.05000	    0.000	  0.00	  0.00	
    11.06000	    0.000	  0.00	  0.00	
    11.07000	    0.000	  0.00	  0.00	
    11.08000	    0.000	  0.00	  0.00	
    11.09000	    0.000	  0.00	  0.00	
    11.10000	    0.000	  0.00	  0.00	
    11.11000	    0.000	  0.00	  0.00	
    11.12000	    0.000	  0.00	  0.00	
    11.13000	    0.000	  0.00	  0.00	
    11.14000	    0.000	  0.00	  0.00	
    11.15000	    0.000	  0.00	  0.00	
    11.16000	    0.000	  0.00	  0.00	
    11.17000	    0.000	  0.00	  0.00	
    11.18000	    0.000	  0.00	  0.00	
    11.19000	    0.000	  0.00	  0.00	
    11.20000	    0.000	  0.00	  0.00	
    11.21000	    0.000	  0.00	  0.00	
    11.22000	    0.000	  0.00	  0.00	
    11.23000	    0.000	  0.00	  0.00	
    11.24000	    0.000	  0.00	  0.00	
    11.25000	    0.000	  0.00	  0.00	
    11.26000	    4.000	 55.00	135.00	
    11.27000	    4.000	 55.00	135.00	
    11.28000	    4.500	 55.00	136.11	
    11.29000	    5.000	 55.00	137.00	
    11.30000	    7.000	 43.57	139.29	
    11.31000	    2.000	 55.00	125.00	
    11.32000	    7.500	 44.33	139.67	
    11.33000	    7.500	 44.33	139.67	
    11.34000	    8.000	 42.50	140.00	
    11.35000	    8.000	 42.50	140.00	
    11.36000	    8.000	 42.50	140.00	
    11.37000	    8.000	 42.50	140.00	
    11.38000	   10.000	 51.00	137.00	
    11.39000	   10.000	 51.00	137.00	
    11.40000	   10.000	 51.00	137.00	
    11.41000	   10.500	 49.29	137.38	
    11.42000	   12.500	 47.00	138.60	
    11.43000	   12.500	 47.00	138.60	
    11.44000	   12.500	 47.00	138.60	
    11.45000	   10.000	 39.00	141.00	
    11.46000	   11.500	 41.09	132.83	
    11.47000	   12.500	 41.40	131.80	
    11.48000	   12.500	 41.40	129.80	
    11.49000	   14.500	 41.90	126.38	
    11.50000	   13.500	 39.44	126.11	
    11.51000	   13.500	 40.93	124.26	
    11.52000	   16.500	 42.27	124.09	
    11.53000	   14.500	 41.90	122.24	
    11.54000	   14.500	 41.90	122.24	
    11.55000	   15.500	 40.16	123.39	
    11.56000	   16.000	 40.63	122.50	
    11.57000	   16.000	 40.63	122.50	
    11.58000	   18.500	 37.97	122.57	
    11.59000	   18.500	 37.97	122.57	
    11.60000	   19.000	 37.89	123.16	
    11.61000	   20.000	 37.50	122.50	
    11.62000	   21.000	 36.19	122.86	
    11.63000	   21.000	 35.48	122.38	
    11.64000	   14.500	 40.52	112.24	
    11.65000	   21.000	 35.48	122.38	
    11.66000	   19.000	 30.26	123.16	
    11.67000	   19.500	 29.87	123.72	
    11.68000	   20.500	 29.63	124.51	
    11.69000	   20.500	 29.63	124.51	
    11.70000	   21.000	 29.29	125.00	
    11.71000	   23.000	 31.74	126.30	
    11.72000	   23.500	 32.45	126.70	
    11.73000	   23.500	 31.38	127.34	
    11.74000	   23.000	 30.87	128.04	
    11.75000	   23.000	 30.00	129.13	
    11.76000	   24.500	 31.73	132.14	
    11.77000	   24.000	 31.25	132.92	
    11.78000	   24.500	 31.53	134.18	
    11.79000	   24.500	 29.90	136.02	
    11.80000	   24.500	 29.90	138.47	
    11.81000	   23.500	 28.19	139.68	
    11.82000	   24.000	 28.75	139.79	
    11.83000	   24.500	 28.06	139.69	
    11.84000	   25.000	 27.80	139.80	
    11.85000	   26.000	 28.08	139.81	
    11.86000	   26.000	 29.23	140.19	
    11.87000	   26.500	 29.34	140.28	
    11.88000	   26.500	 29.34	140.28	
    11.89000	   27.000	 30.00	140.37	
    11.90000	   29.000	 31.72	139.31	
    11.91000	   29.000	 31.72	139.31	
    11.92000	   27.500	 30.64	140.45	
    11.93000	   30.000	 32.00	139.50	
    11.94000	   30.000	 32.67	139.50	
    11.95000	   31.000	 32.90	139.68	
    11.96000	   30.500	 33.20	139.59	
    11.97000	   31.500	 33.25	139.44	
    11.98000	   34.000	 36.91	139.56	
    11.99000	   33.500	 36.94	139.48	
    12.00000	   34.000	 36.91	139.56	
    12.01000	   34.000	 36.91	139.56	
    12.02000	   34.000	 37.35	139.56	
    12.03000	   33.500	 37.69	139.48	
    12.04000	   34.000	 37.35	139.56	
    12.05000	   33.500	 37.69	139.48	
    12.06000	   32.000	 36.09	140.16	
    12.07000	   33.500	 37.69	139.48	
    12.08000	   32.000	 34.84	139.53	
    12.09000	   31.000	 34.84	137.74	
    12.10000	   31.000	 34.84	137.74	
    12.11000	   31.000	 34.84	137.74	
    12.12000	   30.000	 34.67	137.50	
    12.13000	   29.500	 33.31	137.03	
    12.14000	   29.000	 32.76	136.90	
    12.15000	   28.500	 32.72	135.88	
    12.16000	   29.000	 35.00	132.76	
    12.17000	   30.500	 37.79	131.39	
    12.18000	   28.500	 36.75	129.56	
    12.19000	   28.000	 36.25	129.29	
    12.20000	   25.000	 35.40	129.60	
    12.21000	   22.500	 32.11	134.11	
    12.22000	   22.000	 32.95	133.41	
    12.23000	   20.000	 29.75	132.25	
    12.24000	   19.500	 30.13	132.18	
    12.25000	   20.000	 29.50	132.00	
    12.26000	   19.500	 30.13	132.18	
    12.27000	   17.000	 25.88	133.82	
    12.28000	   17.000	 25.88	133.82	
    12.29000	   17.500	 26.14	134.14	
    12.30000	   17.000	 25.88	133.82	
    12.31000	   17.000	 25.88	133.82	
    12.32000	   16.500	 26.21	133.79	
    12.33000	   16.500	 26.21	133.79	
    12.34000	   16.500	 26.21	133.79	
    12.35000	   16.500	 26.21	133.79	
    12.36000	   16.500	 26.21	133.79	
    12.37000	   16.000	 26.56	133.44	
    12.38000	   16.000	 26.56	133.44	
    12.39000	   16.000	 26.56	133.44	
    12.40000	   16.000	 26.56	133.44	
    12.41000	   15.500	 24.68	134.03	
    12.42000	   15.500	 24.68	134.03	
    12.43000	   16.000	 21.88	130.31	
    12.44000	   16.500	 22.88	129.24	
    12.45000	   18.500	 26.35	128.78	
    12.46000	   19.000	 27.11	127.89	
    12.47000	   19.500	 29.87	129.10	
    12.48000	   20.000	 31.00	129.50	
    12.49000	   19.500	 31.67	129.62	
    12.50000	   19.500	 32.18	130.90	
    12.51000	   21.500	 34.77	131.51	
    12.52000	   18.500	 32.57	134.19	
    12.53000	   21.500	 38.02	138.49	
    12.54000	   23.500	 43.51	136.49	
    12.55000	   23.500	 43.30	136.28	
    12.56000	   23.500	 44.79	136.70	
    12.57000	   22.000	 45.00	136.14	
    12.58000	   21.000	 46.43	135.95	
    12.59000	   22.000	 48.18	136.82	
    12.60000	   22.000	 48.18	136.82	
    12.61000	   20.000	 51.50	137.00	
    12.62000	   18.500	 54.73	137.43	
    12.63000	   16.500	 54.70	138.94	
    12.64000	   18.500	 49.32	138.51	
    12.65000	   19.000	 50.00	138.68	
    12.66000	   18.500	 50.95	138.51	
    12.67000	   16.500	 46.82	141.36	
    12.68000	   19.000	 51.84	138.68	
    12.69000	   17.000	 45.59	140.88	
    12.70000	   17.000	 45.59	140.88	
    12.71000	   16.500	 44.70	140.76	
    12.72000	   16.500	 44.70	140.76	
    12.73000	   18.500	 46.08	138.51	
    12.74000	   17.000	 41.76	140.29	
    12.75000	   17.000	 39.71	139.71	
    12.76000	   16.500	 38.64	139.55	
    12.77000	   16.500	 36.21	138.94	
    12.78000	   18.000	 32.78	138.33	
    12.79000	   16.500	 23.79	137.12	
    12.80000	   16.000	 22.19	136.88	
    12.81000	   16.500	 19.85	136.21	
    12.82000	   16.500	 19.85	136.21	
    12.83000	   16.500	 17.73	135.61	
    12.84000	   15.000	 10.00	134.33	
    12.85000	   15.000	 10.00	134.33	
    12.86000	   15.500	 10.16	134.35	
    12.87000	   17.500	 24.43	131.00	
    12.88000	   17.500	 24.43	131.00	
    12.89000	   18.000	 26.11	130.56	
    12.90000	   16.500	 21.97	131.06	
    12.91000	   18.500	 30.95	130.41	
    12.92000	   18.500	 30.95	130.41	
    12.93000	   19.500	 29.87	130.38	
    12.94000	   19.500	 29.87	130.38	
    12.95000	   19.500	 29.87	130.38	
    12.96000	   19.500	 29.87	130.38	
    12.97000	   19.500	 29.87	130.38	
    12.98000	   19.500	 29.87	130.38	
    12.99000	   20.000	 31.25	130.00	
    13.00000	   24.000	 33.54	128.33	
    13.01000	   28.500	 39.91	125.00	
    13.02000	   31.500	 42.14	124.21	
    13.03000	   32.500	 43.15	123.31	
    13.04000	   33.500	 43.06	122.91	
    13.05000	   34.000	 43.53	122.50	
    13.06000	   36.500	 44.59	121.58	
    13.07000	   39.000	 45.51	119.87	
    13.08000	   38.000	 48.55	118.55	
    13.09000	   40.000	 50.88	119.25	
    13.10000	   41.500	 47.29	121.27	
    13.11000	   41.000	 48.29	122.44	
    13.12000	   42.500	 50.53	124.88	
    13.13000	   42.000	 50.60	126.90	
    13.14000	   40.500	 53.27	126.73	
    13.15000	   39.500	 52.59	127.41	
    13.16000	   39.000	 52.31	127.82	
    13.17000	   39.500	 52.85	128.04	
    13.18000	   39.500	 53.10	128.42	
    13.19000	   40.500	 53.15	128.83	
    13.20000	   41.000	 53.78	129.63	
    13.21000	   39.500	 53.73	130.57	
    13.22000	   37.000	 52.30	132.97	
    13.23000	   32.500	 50.54	131.31	
    13.24000	   35.000	 52.29	132.29	
    13.25000	   37.500	 52.87	133.13	
    13.26000	   37.500	 52.87	133.13	
    13.27000	   37.000	 52.30	132.97	
    13.28000	   37.500	 51.80	133.40	
    13.29000	   37.000	 52.30	132.97	
    13.30000	   37.000	 52.30	132.97	
    13.31000	   34.500	 48.77	133.84	
    13.32000	   34.500	 48.77	133.84	
    13.33000	   33.500	 49.93	133.81	
    13.34000	   31.000	 49.03	134.84	
    13.35000	   29.500	 47.37	136.36	
    13.36000	   28.000	 49.29	136.43	
    13.37000	   26.000	 46.54	138.85	
    13.38000	   24.500	 47.04	139.08	
    13.39000	   23.500	 46.91	138.83	
    13.40000	   23.000	 46.09	138.70	
    13.41000	   20.500	 44.51	138.41	
    13.42000	   19.500	 44.49	138.85	
    13.43000	   19.000	 43.42	138.68	
    13.44000	   16.500	 43.79	138.64	
    13.45000	   16.500	 43.79	138.64	
    13.46000	   14.500	 40.17	138.10	
    13.47000	    5.500	  8.64	128.64	
    13.48000	   10.000	 45.50	139.00	
    13.49000	    5.000	  5.00	129.00	
    13.50000	    5.000	  5.00	129.00	
    13.51000	    2.500	  5.00	125.00	
    13.52000	    2.000	  5.00	125.00	
    13.53000	    4.000	 10.00	135.00	
    13.54000	    0.000	  0.00	  0.00	
    13.55000	    0.000	  0.00	  0.00	
    13.56000	    0.000	  0.00	  0.00	
    13.57000	    0.000	  0.00	  0.00	
    13.58000	    0.000	  0.00	  0.00	
    13.59000	    0.000	  0.00	  0.00	
    13.60000	    0.000	  0.00	  0.00	
    13.61000	    0.000	  0.00	  0.00	
    13.62000	    0.000	  0.00	  0.00	
    13.63000	    0.000	  0.00	  0.00	
    13.64000	    0.000	  0.00	  0.00	
    13.65000	    0.000	  0.00	  0.00	
    13.66000	    0.000	  0.00	  0.00	
    13.67000	    0.000	  0.00	  0.00	
    13.68000	    0.000	  0.00	  0.00	
    13.69000	    0.000	  0.00	  0.00	
    13.70000	    0.000	  0.00	  0.00	
    13.71000	    0.000	  0.00	  0.00	
    13.72000	    0.000	  0.00	  0.00	
    13.73000	    0.000	  0.00	  0.00	
    13.74000	    0.000	  0.00	  0.00	
    13.75000	    0.000	  0.00	  0.00	
    13.76000	    0.000	  0.00	  0.00	
    13.77000	    0.000	  0.00	  0.00	
    13.78000	    0.000	  0.00	  0.00	
    13.79000	    0.000	  0.00	  0.00	
    13.80000	    0.000	  0.00	  0.00	
    13.81000	    0.000	  0.00	  0.00	
    13.82000	    0.000	  0.00	  0.00	
    13.83000	    0.000	  0.00	  0.00	
    13.84000	    0.000	  0.00	  0.00	
    13.85000	    0.000	  0.00	  0.00	
    13.86000	    0.000	  0.00	  0.00	
    13.87000	    0.000	  0.00	  0.00	
    13.88000	    0.000	  0.00	  0.00	
    13.89000	    0.000	  0.00	  0.00	
    13.90000	    0.000	  0.00	  0.00	
    13.91000	    0.000	  0.00	  0.00	
    13.92000	    0.000	  0.00	  0.00	
    13.93000	    0.000	  0.00	  0.00	
    13.94000	    0.000	  0.00	  0.00	
    13.95000	    0.000	  0.00	  0.00	
    13.96000	    0.000	  0.00	  0.00	
    13.97000	    0.000	  0.00	  0.00	
    13.98000	    0.000	  0.00	  0.00	
    13.99000	    0.000	  0.00	  0.00	
    14.00000	    0.000	  0.00	  0.00	
    14.01000	    0.000	  0.00	  0.00	
    14.02000	    0.000	  0.00	  0.00	
    14.03000	    0.000	  0.00	  0.00	
    14.04000	    0.000	  0.00	  0.00	
    14.05000	    0.000	  0.00	  0.00	
    14.06000	    0.000	  0.00	  0.00	
    14.07000	    0.000	  0.00	  0.00	
    14.08000	    0.000	  0.00	  0.00	
    14.09000	    0.000	  0.00	  0.00	
    14.10000	    0.000	  0.00	  0.00	
    14.11000	    0.000	  0.00	  0.00	
    14.12000	    0.000	  0.00	  0.00	
    14.13000	    0.000	  0.00	  0.00	
    14.14000	    0.000	  0.00	  0.00	
    14.15000	    0.000	  0.00	  0.00	
    14.16000	    0.000	  0.00	  0.00	
    14.17000	    0.000	  0.00	  0.00	
    14.18000	    0.000	  0.00	  0.00	
    14.19000	    0.000	  0.00	  0.00	
    14.20000	    0.000	  0.00	  0.00	
    14.21000	    0.000	  0.00	  0.00	
    14.22000	    0.000	  0.00	  0.00	
    14.23000	    0.000	  0.00	  0.00	
    14.24000	    0.000	  0.00	  0.00	
    14.25000	    0.000	  0.00	  0.00	
    14.26000	    0.000	  0.00	  0.00	
    14.27000	    0.000	  0.00	  0.00	
    14.28000	    0.000	  0.00	  0.00	
    14.29000	    0.000	  0.00	  0.00	
    14.30000	    0.000	  0.00	  0.00	
    14.31000	    0.000	  0.00	  0.00	
    14.32000	    0.000	  0.00	  0.00	
    14.33000	    0.000	  0.00	  0.00	
    14.34000	    0.000	  0.00	  0.00	
    14.35000	    0.000	  0.00	  0.00	
    14.36000	    0.000	  0.00	  0.00	
    14.37000	    0.000	  0.00	  0.00	
    14.38000	    0.000	  0.00	  0.00	
    14.39000	    0.000	  0.00	  0.00	
    14.40000	    0.000	  0.00	  0.00	
    14.41000	    0.000	  0.00	  0.00	
    14.42000	    0.000	  0.00	  0.00	
    14.43000	    0.000	  0.00	  0.00	
    14.44000	    0.000	  0.00	  0.00	
    14.45000	    0.000	  0.00	  0.00	
    14.46000	    0.000	  0.00	  0.00	
    14.47000	    0.000	  0.00	  0.00	
    14.48000	    0.000	  0.00	  0.00	
    14.49000	    0.000	  0.00	  0.00	
    14.50000	    0.000	  0.00	  0.00	
    14.51000	    0.000	  0.00	  0.00	
    14.52000	    0.000	  0.00	  0.00	
    14.53000	    0.000	  0.00	  0.00	
    14.54000	    0.000	  0.00	  0.00	
    14.55000	    0.000	  0.00	  0.00	
    14.56000	    0.000	  0.00	  0.00	
    14.57000	    0.000	  0.00	  0.00	
    14.58000	    0.000	  0.00	  0.00	
    14.59000	    0.000	  0.00	  0.00	
    14.60000	    0.000	  0.00	  0.00	
    14.61000	    0.000	  0.00	  0.00	
    14.62000	    0.000	  0.00	  0.00	
    14.63000	    2.000	 85.00	135.00	
    14.64000	    2.000	 85.00	135.00	
    14.65000	    4.000	 85.00	130.00	
    14.66000	    5.000	 85.00	130.00	
    14.67000	    5.000	 85.00	130.00	
    14.68000	    5.500	 85.00	129.55	
    14.69000	    6.000	 85.00	130.00	
    14.70000	    6.000	 85.00	130.00	
    14.71000	    6.000	 85.00	130.00	
    14.72000	    6.000	 85.00	130.00	
    14.73000	    6.500	 85.00	129.62	
    14.74000	    6.500	 85.00	129.62	
    14.75000	    6.500	 85.00	129.62	
    14.76000	    6.500	 85.00	129.62	
    14.77000	   10.500	 79.29	131.67	
    14.78000	   12.500	 78.60	130.60	
    14.79000	   12.500	 78.60	130.60	
    14.80000	   13.000	 78.85	130.38	
    14.81000	   15.500	 77.26	129.84	
    14.82000	   16.500	 77.12	129.85	
    14.83000	   16.500	 77.12	129.85	
    14.84000	   16.500	 77.12	129.85	
    14.85000	   17.500	 77.57	129.86	
    14.86000	   18.000	 77.22	129.72	
    14.87000	   19.000	 77.37	129.74	
    14.88000	   21.500	 76.16	128.26	
    14.89000	   21.500	 76.16	128.26	
    14.90000	   23.000	 76.30	128.48	
    14.91000	   23.500	 76.28	128.40	
    14.92000	   25.000	 76.60	128.60	
    14.93000	   27.500	 75.18	129.00	
    14.94000	   28.500	 75.00	129.04	
    14.95000	   29.000	 74.83	129.14	
    14.96000	   29.500	 75.00	129.24	
    14.97000	   30.000	 75.00	129.17	
    14.98000	   32.500	 71.46	128.85	
    14.99000	   43.500	 72.70	132.93	
    15.00000	   44.500	 72.75	132.98	
    15.01000	   43.500	 73.62	133.16	
    15.02000	   44.500	 73.65	133.31	
    15.03000	   48.000	 73.02	133.44	
    15.04000	   46.500	 73.82	133.49	
    15.05000	   47.000	 73.83	133.51	
    15.06000	   49.000	 73.06	133.57	
    15.07000	   49.500	 73.18	133.69	
    15.08000	   50.500	 73.32	133.81	
    15.09000	   51.500	 74.81	133.83	
    15.10000	   55.500	 71.58	134.28	
    15.11000	   54.000	 70.65	134.17	
    15.12000	   56.500	 67.83	133.76	
    15.13000	   61.000	 65.41	134.26	
    15.14000	   61.500	 66.06	134.43	
    15.15000	   64.000	 63.44	134.38	
    15.16000	   62.500	 65.16	134.44	
    15.17000	   62.500	 64.44	134.44	
    15.18000	   63.000	 64.37	134.52	
    15.19000	   62.500	 64.20	134.44	
    15.20000	   63.500	 63.66	134.21	
    15.21000	   62.000	 63.47	134.60	
    15.22000	   61.000	 63.11	134.51	
    15.23000	   66.000	 59.09	134.09	
    15.24000	   63.500	 61.54	134.45	
    15.25000	   68.000	 58.68	133.97	
    15.26000	   66.500	 58.38	133.95	
    15.27000	   66.500	 58.23	133.95	
    15.28000	   65.000	 57.85	133.77	
    15.29000	   66.000	 57.50	133.86	
    15.30000	   67.000	 57.69	134.03	
    15.31000	   66.500	 57.63	133.95	
    15.32000	   67.000	 57.69	134.03	
    15.33000	   67.500	 57.89	133.81	
    15.34000	   68.500	 58.14	133.98	
    15.35000	   70.500	 58.62	133.94	
    15.36000	   73.500	 59.42	133.84	
    15.37000	   79.000	 60.13	133.16	
    15.38000	   85.000	 61.53	132.88	
    15.39000	   91.000	 62.69	132.69	
    15.40000	   92.500	 64.08	132.89	
    15.41000	  100.500	 66.24	132.91	
    15.42000	  104.000	 67.31	132.84	
    15.43000	  112.000	 68.17	132.46	
    15.44000	  118.000	 69.03	132.42	
    15.45000	  124.500	 69.90	132.59	
    15.46000	  131.000	 70.73	132.44	
    15.47000	  137.500	 70.71	132.16	
    15.48000	  142.500	 71.25	132.19	
    15.49000	  148.500	 71.60	131.84	
    15.50000	  153.500	 72.07	131.91	
    15.51000	  156.500	 72.19	131.84	
    15.52000	  159.000	 73.33	131.67	
    15.53000	  125.500	 72.49	127.79	
    15.54000	  129.500	 72.64	127.74	
    15.55000	  132.000	 72.73	127.73	
    15.56000	  136.500	 72.91	127.71	
    15.57000	  140.500	 73.08	127.67	
    15.58000	  145.500	 73.18	127.68	
    15.59000	  151.000	 72.62	127.55	
    15.60000	  157.000	 72.26	127.29	
    15.61000	  162.000	 72.87	127.16	
    15.62000	  169.500	 72.02	126.59	
    15.63000	  169.500	 72.76	126.92	
    15.64000	  173.000	 72.92	126.99	
    15.65000	  175.000	 73.00	127.03	
    15.66000	  177.000	 73.08	127.01	
    15.67000	  184.000	 72.72	127.15	
    15.68000	  231.500	 74.40	131.00	
    15.69000	  227.500	 74.47	130.80	
    15.70000	  180.000	 73.36	127.14	
    15.71000	  231.500	 74.48	131.13	
    15.72000	  230.500	 74.50	131.18	
    15.73000	  226.500	 74.91	131.40	
    15.74000	  223.000	 74.75	131.48	
    15.75000	  216.500	 74.68	131.40	
    15.76000	  205.500	 75.75	131.67	
    15.77000	  196.500	 76.50	132.02	
    15.78000	  192.500	 76.45	132.09	
    15.79000	  185.000	 77.30	132.19	
    15.80000	  176.000	 77.93	132.47	
    15.81000	  168.500	 77.88	132.45	
    15.82000	  159.000	 78.21	132.39	
    15.83000	  149.500	 78.98	132.56	
    15.84000	  143.000	 78.95	132.62	
    15.85000	  133.500	 79.12	132.83	
    15.86000	  125.000	 78.92	133.20	
    15.87000	  120.500	 78.90	133.22	
    15.88000	  113.000	 79.20	133.50	
    15.89000	  109.000	 79.08	133.53	
    15.90000	   89.000	 78.88	131.29	
    15.91000	  102.000	 79.17	133.33	
    15.92000	   98.000	 79.59	133.32	
    15.93000	   94.000	 79.79	133.19	
    15.94000	   92.500	 79.81	133.05	
    15.95000	   90.500	 79.81	133.12	
    15.96000	   90.000	 79.78	133.06	
    15.97000	   88.000	 79.72	133.01	
    15.98000	   88.000	 79.66	132.95	
    15.99000	   87.000	 79.83	133.10	
    16.00000	   88.500	 79.86	132.91	
    16.01000	   87.500	 79.86	133.06	
    16.02000	   88.500	 80.03	133.08	
    16.03000	   88.000	 80.06	133.18	
    16.04000	   87.000	 79.94	133.05	
    16.05000	   87.000	 79.94	133.05	
    16.06000	   86.500	 79.91	133.03	
    16.07000	   87.000	 79.89	132.99	
    16.08000	   86.000	 79.83	133.02	
    16.09000	   87.000	 79.89	132.99	
    16.10000	   87.500	 79.91	132.94	
    16.11000	   91.500	 79.21	132.92	
    16.12000	   92.500	 79.22	132.84	
    16.13000	   93.500	 79.22	132.91	
    16.14000	   95.500	 79.29	133.12	
    16.15000	   95.500	 79.29	133.22	
    16.16000	   99.000	 79.44	133.23	
    16.17000	   99.000	 79.44	133.18	
    16.18000	   98.500	 79.21	133.07	
    16.19000	   98.500	 78.71	132.82	
    16.20000	   73.000	 78.15	128.49	
    16.21000	   76.000	 77.76	128.22	
    16.22000	   79.000	 78.04	127.85	
    16.23000	   83.500	 77.46	127.40	
    16.24000	  111.000	 77.75	131.58	
    16.25000	  113.000	 77.96	131.73	
    16.26000	  113.500	 77.95	131.74	
    16.27000	  118.000	 77.33	132.29	
    16.28000	  118.500	 77.70	132.72	
    16.29000	  120.000	 77.75	132.75	
    16.30000	  121.500	 77.55	132.90	
    16.31000	  122.500	 77.61	133.00	
    16.32000	  122.000	 77.38	133.40	
    16.33000	  128.000	 76.17	133.36	
    16.34000	  134.500	 74.74	133.51	
    16.35000	  137.500	 74.78	133.47	
    16.36000	  136.000	 76.99	133.31	
    16.37000	  143.500	 74.93	133.29	
    16.38000	  143.000	 76.15	133.39	
    16.39000	  150.000	 75.13	133.20	
    16.40000	  151.000	 75.20	133.21	
    16.41000	  150.000	 76.17	133.17	
    16.42000	  155.000	 75.13	133.16	
    16.43000	  154.500	 76.07	133.19	
    16.44000	  157.500	 76.24	133.19	
    16.45000	  160.500	 75.44	133.35	
    16.46000	  161.500	 75.53	133.39	
    16.47000	  162.500	 75.62	133.40	
    16.48000	  161.000	 75.71	133.45	
    16.49000	  160.500	 76.68	133.44	
    16.50000	  157.500	 77.70	133.32	
    16.51000	  157.500	 77.83	133.25	
    16.52000	  157.500	 77.76	133.22	
    16.53000	  156.500	 77.88	133.18	
    16.54000	  155.500	 77.93	133.17	
    16.55000	  153.000	 77.94	133.24	
    16.56000	  149.500	 77.81	133.16	
    16.57000	  145.500	 77.99	133.08	
    16.58000	  140.500	 78.02	133.08	
    16.59000	  135.000	 77.78	133.26	
    16.60000	  132.000	 77.69	133.22	
    16.61000	  128.500	 77.68	133.21	
    16.62000	  127.000	 77.64	133.15	
    16.63000	  122.500	 77.94	133.29	
    16.64000	  118.000	 77.88	133.35	
    16.65000	  113.000	 78.32	133.05	
    16.66000	  110.500	 78.12	132.96	
    16.67000	  108.500	 78.18	132.79	
    16.68000	  114.500	 77.93	132.21	
    16.69000	  123.500	 78.04	132.29	
    16.70000	  140.500	 77.88	132.19	
    16.71000	  166.500	 77.91	132.00	
    16.72000	  206.500	 77.06	131.85	
    16.73000	  252.000	 76.71	131.71	
    16.74000	  305.500	 76.29	131.24	
    16.75000	  359.000	 75.67	131.03	
    16.76000	  407.000	 75.16	130.81	
    16.77000	  452.500	 74.58	130.68	
    16.78000	  488.000	 74.48	130.65	
    16.79000	  519.000	 74.21	130.60	
    16.80000	  541.000	 74.58	130.65	
    16.81000	  553.500	 74.62	130.68	
    16.82000	  547.000	 75.37	130.97	
    16.83000	  538.500	 75.52	131.04	
    16.84000	  509.500	 76.43	131.10	
    16.85000	  475.000	 76.59	131.20	
    16.86000	  441.000	 76.02	130.93	
    16.87000	  394.000	 76.21	130.43	
    16.88000	  350.500	 76.00	129.78	
    16.89000	  321.000	 75.44	129.38	
    16.90000	  290.000	 74.88	129.05	
    16.91000	  262.000	 74.68	128.00	
    16.92000	  237.000	 74.01	127.53	
    16.93000	  209.000	 73.56	127.22	
    16.94000	  185.000	 73.92	126.51	
    16.95000	  168.000	 73.63	126.34	
    16.96000	  158.000	 73.20	125.95	
    16.97000	  142.000	 73.31	125.95	
    16.98000	  136.000	 73.31	126.25	
    16.99000	  125.000	 73.20	126.68	
    17.00000	  116.500	 74.10	128.48	
    17.01000	  109.000	 74.08	128.72	
    17.02000	  105.500	 74.00	128.84	
    17.03000	  103.000	 73.93	128.83	
    17.04000	   99.000	 74.44	129.55	
    17.05000	   97.500	 74.33	129.46	
    17.06000	   95.000	 74.84	129.79	
    17.07000	   90.000	 74.89	130.11	
    17.08000	   89.500	 74.83	130.08	
    17.09000	   89.500	 75.06	129.64	
    17.10000	   87.000	 75.11	129.66	
    17.11000	   84.000	 74.88	130.12	
    17.12000	   83.000	 74.94	130.06	
    17.13000	   80.000	 75.19	130.31	
    17.14000	   78.500	 75.25	130.35	
    17.15000	   75.000	 75.33	130.27	
    17.16000	   72.500	 75.41	130.52	
    17.17000	   71.000	 75.42	130.56	
    17.18000	   68.000	 75.51	130.59	
    17.19000	   63.500	 76.02	130.98	
    17.20000	   57.500	 75.35	131.09	
    17.21000	   57.000	 75.26	131.05	
    17.22000	   55.500	 75.09	131.04	
    17.23000	   46.500	 75.86	131.13	
    17.24000	   46.500	 75.00	130.91	
    17.25000	   42.500	 75.82	131.24	
    17.26000	   41.500	 75.72	131.39	
    17.27000	   39.500	 76.01	131.46	
    17.28000	   37.500	 75.93	131.40	
    17.29000	   34.500	 76.16	131.52	
    17.30000	   31.500	 75.95	131.35	
    17.31000	   31.500	 75.95	131.35	
    17.32000	   29.000	 76.03	132.59	
    17.33000	   28.000	 75.89	132.50	
    17.34000	   25.000	 76.60	131.60	
    17.35000	   23.000	 76.52	132.39	
    17.36000	   18.500	 78.78	132.84	
    17.37000	   18.500	 78.78	132.84	
    17.38000	   18.000	 78.89	132.78	
    17.39000	   15.000	 78.00	131.00	
    17.40000	   12.500	 80.20	132.20	
    17.41000	   14.500	 78.10	131.21	
    17.42000	   12.500	 80.20	132.20	
    17.43000	   10.000	 81.00	132.00	
    17.44000	   10.000	 81.00	132.00	
    17.45000	    7.500	 82.33	133.67	
    17.46000	    5.500	 85.00	129.55	
    17.47000	    5.500	 85.00	129.55	
    17.48000	    5.500	 85.00	129.55	
    17.49000	    5.000	 85.00	129.00	
    17.50000	    4.500	 85.00	129.44	
    17.51000	    4.500	 85.00	129.44	
    17.52000	    6.500	 72.69	103.46	
    17.53000	    4.500	 67.22	 89.44	
    17.54000	    4.500	 67.22	 89.44	
    17.55000	    4.500	 62.78	 80.56	
    17.56000	    4.500	 62.78	 80.56	
    17.57000	    4.500	 62.78	 80.56	
    17.58000	    2.500	 45.00	 45.00	
    17.59000	    2.500	 45.00	 45.00	
    17.60000	    3.000	 45.00	 45.00	
    17.61000	    3.000	 45.00	 45.00	
    17.62000	    3.500	 45.00	 45.00	
    17.63000	    3.500	 45.00	 45.00	
    17.64000	    3.500	 45.00	 45.00	
    17.65000	    3.500	 45.00	 45.00	
    17.66000	    3.500	 45.00	 45.00	
    17.67000	    3.500	 45.00	 45.00	
    17.68000	    3.500	 45.00	 45.00	
    17.69000	    3.500	 45.00	 45.00	
    17.70000	    4.000	 45.00	 45.00	
    17.71000	    4.000	 45.00	 45.00	
    17.72000	    4.000	 45.00	 45.00	
    17.73000	    4.000	 45.00	 45.00	
    17.74000	    4.000	 45.00	 45.00	
    17.75000	    4.000	 45.00	 45.00	
    17.76000	    4.000	 45.00	 45.00	
    17.77000	    4.000	 45.00	 45.00	
    17.78000	    4.000	 45.00	 45.00	
    17.79000	    4.000	 45.00	 45.00	
    17.80000	    6.500	 38.85	 63.46	
    17.81000	    6.500	 38.85	 63.46	
    17.82000	    6.500	 38.85	 63.46	
    17.83000	    7.000	 39.29	 62.14	
    17.84000	    5.000	 45.00	 45.00	
    17.85000	    7.000	 39.29	 62.14	
    17.86000	    5.500	 45.00	 45.00	
    17.87000	    7.500	 39.67	 61.00	
    17.88000	    5.500	 45.00	 45.00	
    17.89000	    5.500	 45.00	 45.00	
    17.90000	    5.500	 45.00	 45.00	
    17.91000	    5.500	 45.00	 45.00	
    17.92000	    5.000	 45.00	 45.00	
    17.93000	    4.500	 45.00	 45.00	
    17.94000	    4.500	 45.00	 45.00	
    17.95000	    3.500	 45.00	 45.00	
    17.96000	    2.500	 45.00	 45.00	
    17.97000	    2.000	 45.00	 45.00	
    17.98000	    0.000	  0.00	  0.00	
    17.99000	    0.000	  0.00	  0.00	
    18.00000	    0.000	  0.00	  0.00	
    18.01000	    0.000	  0.00	  0.00	
    18.02000	    0.000	  0.00	  0.00	
    18.03000	    0.000	  0.00	  0.00	
    18.04000	    0.000	  0.00	  0.00	
    18.05000	    0.000	  0.00	  0.00	
    18.06000	    0.000	  0.00	  0.00	
    18.07000	    0.000	  0.00	  0.00	
    18.08000	    0.000	  0.00	  0.00	
    18.09000	    0.000	  0.00	  0.00	
    18.10000	    0.000	  0.00	  0.00	
    18.11000	    0.000	  0.00	  0.00	
    18.12000	    0.000	  0.00	  0.00	
    18.13000	    0.000	  0.00	  0.00	
    18.14000	    0.000	  0.00	  0.00	
    18.15000	    0.000	  0.00	  0.00	
    18.16000	    0.000	  0.00	  0.00	
    18.17000	    0.000	  0.00	  0.00	
    18.18000	    0.000	  0.00	  0.00	
    18.19000	    0.000	  0.00	  0.00	
    18.20000	    0.000	  0.00	  0.00	
    18.21000	    0.000	  0.00	  0.00	
    18.22000	    0.000	  0.00	  0.00	
    18.23000	    0.000	  0.00	  0.00	
    18.24000	    0.000	  0.00	  0.00	
    18.25000	    0.000	  0.00	  0.00	
    18.26000	    0.000	  0.00	  0.00	
    18.27000	    0.000	  0.00	  0.00	
    18.28000	    0.000	  0.00	  0.00	
    18.29000	    0.000	  0.00	  0.00	
    18.30000	    0.000	  0.00	  0.00	
    18.31000	    0.000	  0.00	  0.00	
    18.32000	    0.000	  0.00	  0.00	
    18.33000	    0.000	  0.00	  0.00	
    18.34000	    0.000	  0.00	  0.00	
    18.35000	    0.000	  0.00	  0.00	
    18.36000	    0.000	  0.00	  0.00	
    18.37000	    0.000	  0.00	  0.00	
    18.38000	    0.000	  0.00	  0.00	
    18.39000	    0.000	  0.00	  0.00	
    18.40000	    0.000	  0.00	  0.00	
    18.41000	    0.000	  0.00	  0.00	
    18.42000	    0.000	  0.00	  0.00	
    18.43000	    0.000	  0.00	  0.00	
    18.44000	    0.000	  0.00	  0.00	
    18.45000	    0.000	  0.00	  0.00	
    18.46000	    0.000	  0.00	  0.00	
    18.47000	    0.000	  0.00	  0.00	
    18.48000	    0.000	  0.00	  0.00	
    18.49000	    0.000	  0.00	  0.00	
    18.50000	    0.000	  0.00	  0.00	
    18.51000	    0.000	  0.00	  0.00	
    18.52000	    0.000	  0.00	  0.00	
    18.53000	    0.000	  0.00	  0.00	
    18.54000	    0.000	  0.00	  0.00	
    18.55000	    0.000	  0.00	  0.00	
    18.56000	    0.000	  0.00	  0.00	
    18.57000	    0.000	  0.00	  0.00	
    18.58000	    0.000	  0.00	  0.00	
    18.59000	    0.000	  0.00	  0.00	
    18.60000	    0.000	  0.00	  0.00	
    18.61000	    0.000	  0.00	  0.00	
    18.62000	    0.000	  0.00	  0.00	
    18.63000	    0.000	  0.00	  0.00	
    18.64000	    0.000	  0.00	  0.00	
    18.65000	    0.000	  0.00	  0.00	
    18.66000	    0.000	  0.00	  0.00	
    18.67000	    0.000	  0.00	  0.00	
    18.68000	    0.000	  0.00	  0.00	
    18.69000	    0.000	  0.00	  0.00	
    18.70000	    0.000	  0.00	  0.00	
    18.71000	    0.000	  0.00	  0.00	
    18.72000	    0.000	  0.00	  0.00	
    18.73000	    0.000	  0.00	  0.00	
    18.74000	    0.000	  0.00	  0.00	
    18.75000	    0.000	  0.00	  0.00	
    18.76000	    0.000	  0.00	  0.00	
    18.77000	    0.000	  0.00	  0.00	
