file name:  S2128_09_1_2_MPa_PXF440_220809_119.mat	date/time  03.09.22 10.02
sensor type:  s2128_09_1_2_mpa_pxf440_220809 
force time integral[N*s]:       162.405
pressure time integral [kPa*s]:      234.900
total time [secs]:  14.660	time per frame [secs]:  0.01000	scanning rate [Hz]:   100


time[secs]    	force[N]   	x[mm]     	y[mm] 	

     0.01000	    0.000	  0.00	  0.00	
     0.02000	    0.000	  0.00	  0.00	
     0.03000	    0.000	  0.00	  0.00	
     0.04000	    0.000	  0.00	  0.00	
     0.05000	    0.000	  0.00	  0.00	
     0.06000	    0.000	  0.00	  0.00	
     0.07000	    0.000	  0.00	  0.00	
     0.08000	    0.000	  0.00	  0.00	
     0.09000	    0.000	  0.00	  0.00	
     0.10000	    0.000	  0.00	  0.00	
     0.11000	    0.000	  0.00	  0.00	
     0.12000	    0.000	  0.00	  0.00	
     0.13000	    0.000	  0.00	  0.00	
     0.14000	    0.000	  0.00	  0.00	
     0.15000	    0.000	  0.00	  0.00	
     0.16000	    0.000	  0.00	  0.00	
     0.17000	    0.000	  0.00	  0.00	
     0.18000	    0.000	  0.00	  0.00	
     0.19000	    0.000	  0.00	  0.00	
     0.20000	    0.000	  0.00	  0.00	
     0.21000	    0.000	  0.00	  0.00	
     0.22000	    0.000	  0.00	  0.00	
     0.23000	    0.000	  0.00	  0.00	
     0.24000	    0.000	  0.00	  0.00	
     0.25000	    0.000	  0.00	  0.00	
     0.26000	    0.000	  0.00	  0.00	
     0.27000	    0.000	  0.00	  0.00	
     0.28000	    0.000	  0.00	  0.00	
     0.29000	    0.000	  0.00	  0.00	
     0.30000	    0.000	  0.00	  0.00	
     0.31000	    0.000	  0.00	  0.00	
     0.32000	    0.000	  0.00	  0.00	
     0.33000	    0.000	  0.00	  0.00	
     0.34000	    0.000	  0.00	  0.00	
     0.35000	    0.000	  0.00	  0.00	
     0.36000	    0.000	  0.00	  0.00	
     0.37000	    0.000	  0.00	  0.00	
     0.38000	    0.000	  0.00	  0.00	
     0.39000	    0.000	  0.00	  0.00	
     0.40000	    0.000	  0.00	  0.00	
     0.41000	    0.000	  0.00	  0.00	
     0.42000	    0.000	  0.00	  0.00	
     0.43000	    0.000	  0.00	  0.00	
     0.44000	    0.000	  0.00	  0.00	
     0.45000	    0.000	  0.00	  0.00	
     0.46000	    0.000	  0.00	  0.00	
     0.47000	    0.000	  0.00	  0.00	
     0.48000	    0.000	  0.00	  0.00	
     0.49000	    0.000	  0.00	  0.00	
     0.50000	    0.000	  0.00	  0.00	
     0.51000	    0.000	  0.00	  0.00	
     0.52000	    0.000	  0.00	  0.00	
     0.53000	    0.000	  0.00	  0.00	
     0.54000	    0.000	  0.00	  0.00	
     0.55000	    0.000	  0.00	  0.00	
     0.56000	    0.000	  0.00	  0.00	
     0.57000	    0.000	  0.00	  0.00	
     0.58000	    0.000	  0.00	  0.00	
     0.59000	    0.000	  0.00	  0.00	
     0.60000	    0.000	  0.00	  0.00	
     0.61000	    0.000	  0.00	  0.00	
     0.62000	    0.000	  0.00	  0.00	
     0.63000	    0.000	  0.00	  0.00	
     0.64000	    0.000	  0.00	  0.00	
     0.65000	    0.000	  0.00	  0.00	
     0.66000	    0.000	  0.00	  0.00	
     0.67000	    0.000	  0.00	  0.00	
     0.68000	    0.000	  0.00	  0.00	
     0.69000	    0.000	  0.00	  0.00	
     0.70000	    0.000	  0.00	  0.00	
     0.71000	    0.000	  0.00	  0.00	
     0.72000	    0.000	  0.00	  0.00	
     0.73000	    0.000	  0.00	  0.00	
     0.74000	    0.000	  0.00	  0.00	
     0.75000	    0.000	  0.00	  0.00	
     0.76000	    0.000	  0.00	  0.00	
     0.77000	    0.000	  0.00	  0.00	
     0.78000	    0.000	  0.00	  0.00	
     0.79000	    0.000	  0.00	  0.00	
     0.80000	    0.000	  0.00	  0.00	
     0.81000	    0.000	  0.00	  0.00	
     0.82000	    0.000	  0.00	  0.00	
     0.83000	    0.000	  0.00	  0.00	
     0.84000	    0.000	  0.00	  0.00	
     0.85000	    0.000	  0.00	  0.00	
     0.86000	    0.000	  0.00	  0.00	
     0.87000	    0.000	  0.00	  0.00	
     0.88000	    0.000	  0.00	  0.00	
     0.89000	    0.000	  0.00	  0.00	
     0.90000	    0.000	  0.00	  0.00	
     0.91000	    0.000	  0.00	  0.00	
     0.92000	    0.000	  0.00	  0.00	
     0.93000	    0.000	  0.00	  0.00	
     0.94000	    0.000	  0.00	  0.00	
     0.95000	    0.000	  0.00	  0.00	
     0.96000	    0.000	  0.00	  0.00	
     0.97000	    0.000	  0.00	  0.00	
     0.98000	    0.000	  0.00	  0.00	
     0.99000	    0.000	  0.00	  0.00	
     1.00000	    0.000	  0.00	  0.00	
     1.01000	    0.000	  0.00	  0.00	
     1.02000	    0.000	  0.00	  0.00	
     1.03000	    0.000	  0.00	  0.00	
     1.04000	    0.000	  0.00	  0.00	
     1.05000	    0.000	  0.00	  0.00	
     1.06000	    0.000	  0.00	  0.00	
     1.07000	    0.000	  0.00	  0.00	
     1.08000	    0.000	  0.00	  0.00	
     1.09000	    0.000	  0.00	  0.00	
     1.10000	    0.000	  0.00	  0.00	
     1.11000	    0.000	  0.00	  0.00	
     1.12000	    0.000	  0.00	  0.00	
     1.13000	    0.000	  0.00	  0.00	
     1.14000	    0.000	  0.00	  0.00	
     1.15000	    0.000	  0.00	  0.00	
     1.16000	    0.000	  0.00	  0.00	
     1.17000	    0.000	  0.00	  0.00	
     1.18000	    0.000	  0.00	  0.00	
     1.19000	    0.000	  0.00	  0.00	
     1.20000	    0.000	  0.00	  0.00	
     1.21000	    0.000	  0.00	  0.00	
     1.22000	    0.000	  0.00	  0.00	
     1.23000	    0.000	  0.00	  0.00	
     1.24000	    0.000	  0.00	  0.00	
     1.25000	    0.000	  0.00	  0.00	
     1.26000	    0.000	  0.00	  0.00	
     1.27000	    0.000	  0.00	  0.00	
     1.28000	    0.000	  0.00	  0.00	
     1.29000	    0.000	  0.00	  0.00	
     1.30000	    0.000	  0.00	  0.00	
     1.31000	    0.000	  0.00	  0.00	
     1.32000	    0.000	  0.00	  0.00	
     1.33000	    0.000	  0.00	  0.00	
     1.34000	    0.000	  0.00	  0.00	
     1.35000	    0.000	  0.00	  0.00	
     1.36000	    0.000	  0.00	  0.00	
     1.37000	    0.000	  0.00	  0.00	
     1.38000	    0.000	  0.00	  0.00	
     1.39000	    0.000	  0.00	  0.00	
     1.40000	    0.000	  0.00	  0.00	
     1.41000	    0.000	  0.00	  0.00	
     1.42000	    0.000	  0.00	  0.00	
     1.43000	    0.000	  0.00	  0.00	
     1.44000	    0.000	  0.00	  0.00	
     1.45000	    0.000	  0.00	  0.00	
     1.46000	    0.000	  0.00	  0.00	
     1.47000	    0.000	  0.00	  0.00	
     1.48000	    0.000	  0.00	  0.00	
     1.49000	    0.000	  0.00	  0.00	
     1.50000	    0.000	  0.00	  0.00	
     1.51000	    0.000	  0.00	  0.00	
     1.52000	    0.000	  0.00	  0.00	
     1.53000	    0.000	  0.00	  0.00	
     1.54000	    0.000	  0.00	  0.00	
     1.55000	    0.000	  0.00	  0.00	
     1.56000	    0.000	  0.00	  0.00	
     1.57000	    0.000	  0.00	  0.00	
     1.58000	    0.000	  0.00	  0.00	
     1.59000	    0.000	  0.00	  0.00	
     1.60000	    0.000	  0.00	  0.00	
     1.61000	    0.000	  0.00	  0.00	
     1.62000	    0.000	  0.00	  0.00	
     1.63000	    0.000	  0.00	  0.00	
     1.64000	    0.000	  0.00	  0.00	
     1.65000	    0.000	  0.00	  0.00	
     1.66000	    0.000	  0.00	  0.00	
     1.67000	    0.000	  0.00	  0.00	
     1.68000	    0.000	  0.00	  0.00	
     1.69000	    0.000	  0.00	  0.00	
     1.70000	    0.000	  0.00	  0.00	
     1.71000	    0.000	  0.00	  0.00	
     1.72000	    0.000	  0.00	  0.00	
     1.73000	    0.000	  0.00	  0.00	
     1.74000	    0.000	  0.00	  0.00	
     1.75000	    0.000	  0.00	  0.00	
     1.76000	    0.000	  0.00	  0.00	
     1.77000	    0.000	  0.00	  0.00	
     1.78000	    0.000	  0.00	  0.00	
     1.79000	    0.000	  0.00	  0.00	
     1.80000	    0.000	  0.00	  0.00	
     1.81000	    0.000	  0.00	  0.00	
     1.82000	    0.000	  0.00	  0.00	
     1.83000	    0.000	  0.00	  0.00	
     1.84000	    0.000	  0.00	  0.00	
     1.85000	    0.000	  0.00	  0.00	
     1.86000	    0.000	  0.00	  0.00	
     1.87000	    0.000	  0.00	  0.00	
     1.88000	    0.000	  0.00	  0.00	
     1.89000	    0.000	  0.00	  0.00	
     1.90000	    0.000	  0.00	  0.00	
     1.91000	    0.000	  0.00	  0.00	
     1.92000	    0.000	  0.00	  0.00	
     1.93000	    0.000	  0.00	  0.00	
     1.94000	    0.000	  0.00	  0.00	
     1.95000	    0.000	  0.00	  0.00	
     1.96000	    0.000	  0.00	  0.00	
     1.97000	    0.000	  0.00	  0.00	
     1.98000	    0.000	  0.00	  0.00	
     1.99000	    0.000	  0.00	  0.00	
     2.00000	    0.000	  0.00	  0.00	
     2.01000	    0.000	  0.00	  0.00	
     2.02000	    0.000	  0.00	  0.00	
     2.03000	    0.000	  0.00	  0.00	
     2.04000	    0.000	  0.00	  0.00	
     2.05000	    0.000	  0.00	  0.00	
     2.06000	    0.000	  0.00	  0.00	
     2.07000	    0.000	  0.00	  0.00	
     2.08000	    0.000	  0.00	  0.00	
     2.09000	    0.000	  0.00	  0.00	
     2.10000	    0.000	  0.00	  0.00	
     2.11000	    0.000	  0.00	  0.00	
     2.12000	    0.000	  0.00	  0.00	
     2.13000	    0.000	  0.00	  0.00	
     2.14000	    0.000	  0.00	  0.00	
     2.15000	    0.000	  0.00	  0.00	
     2.16000	    0.000	  0.00	  0.00	
     2.17000	    0.000	  0.00	  0.00	
     2.18000	    0.000	  0.00	  0.00	
     2.19000	    0.000	  0.00	  0.00	
     2.20000	    0.000	  0.00	  0.00	
     2.21000	    0.000	  0.00	  0.00	
     2.22000	    0.000	  0.00	  0.00	
     2.23000	    0.000	  0.00	  0.00	
     2.24000	    0.000	  0.00	  0.00	
     2.25000	    0.000	  0.00	  0.00	
     2.26000	    0.000	  0.00	  0.00	
     2.27000	    0.000	  0.00	  0.00	
     2.28000	    0.000	  0.00	  0.00	
     2.29000	    0.000	  0.00	  0.00	
     2.30000	    0.000	  0.00	  0.00	
     2.31000	    0.000	  0.00	  0.00	
     2.32000	    0.000	  0.00	  0.00	
     2.33000	    0.000	  0.00	  0.00	
     2.34000	    0.000	  0.00	  0.00	
     2.35000	    0.000	  0.00	  0.00	
     2.36000	    0.000	  0.00	  0.00	
     2.37000	    0.000	  0.00	  0.00	
     2.38000	    0.000	  0.00	  0.00	
     2.39000	    0.000	  0.00	  0.00	
     2.40000	    0.000	  0.00	  0.00	
     2.41000	    0.000	  0.00	  0.00	
     2.42000	    0.000	  0.00	  0.00	
     2.43000	    0.000	  0.00	  0.00	
     2.44000	    0.000	  0.00	  0.00	
     2.45000	    0.000	  0.00	  0.00	
     2.46000	    0.000	  0.00	  0.00	
     2.47000	    0.000	  0.00	  0.00	
     2.48000	    0.000	  0.00	  0.00	
     2.49000	    0.000	  0.00	  0.00	
     2.50000	    0.000	  0.00	  0.00	
     2.51000	    0.000	  0.00	  0.00	
     2.52000	    0.000	  0.00	  0.00	
     2.53000	    0.000	  0.00	  0.00	
     2.54000	    0.000	  0.00	  0.00	
     2.55000	    0.000	  0.00	  0.00	
     2.56000	    0.000	  0.00	  0.00	
     2.57000	    0.000	  0.00	  0.00	
     2.58000	    0.000	  0.00	  0.00	
     2.59000	    0.000	  0.00	  0.00	
     2.60000	    0.000	  0.00	  0.00	
     2.61000	    0.000	  0.00	  0.00	
     2.62000	    0.000	  0.00	  0.00	
     2.63000	    0.000	  0.00	  0.00	
     2.64000	    0.000	  0.00	  0.00	
     2.65000	    0.000	  0.00	  0.00	
     2.66000	    0.000	  0.00	  0.00	
     2.67000	    0.000	  0.00	  0.00	
     2.68000	    0.000	  0.00	  0.00	
     2.69000	    0.000	  0.00	  0.00	
     2.70000	    0.000	  0.00	  0.00	
     2.71000	    0.000	  0.00	  0.00	
     2.72000	    0.000	  0.00	  0.00	
     2.73000	    0.000	  0.00	  0.00	
     2.74000	    0.000	  0.00	  0.00	
     2.75000	    0.000	  0.00	  0.00	
     2.76000	    0.000	  0.00	  0.00	
     2.77000	    0.000	  0.00	  0.00	
     2.78000	    0.000	  0.00	  0.00	
     2.79000	    0.000	  0.00	  0.00	
     2.80000	    0.000	  0.00	  0.00	
     2.81000	    0.000	  0.00	  0.00	
     2.82000	    0.000	  0.00	  0.00	
     2.83000	    0.000	  0.00	  0.00	
     2.84000	    0.000	  0.00	  0.00	
     2.85000	    0.000	  0.00	  0.00	
     2.86000	    0.000	  0.00	  0.00	
     2.87000	    0.000	  0.00	  0.00	
     2.88000	    0.000	  0.00	  0.00	
     2.89000	    0.000	  0.00	  0.00	
     2.90000	    0.000	  0.00	  0.00	
     2.91000	    0.000	  0.00	  0.00	
     2.92000	    0.000	  0.00	  0.00	
     2.93000	    0.000	  0.00	  0.00	
     2.94000	    0.000	  0.00	  0.00	
     2.95000	    0.000	  0.00	  0.00	
     2.96000	    0.000	  0.00	  0.00	
     2.97000	    0.000	  0.00	  0.00	
     2.98000	    0.000	  0.00	  0.00	
     2.99000	    0.000	  0.00	  0.00	
     3.00000	    0.000	  0.00	  0.00	
     3.01000	    0.000	  0.00	  0.00	
     3.02000	    0.000	  0.00	  0.00	
     3.03000	    0.000	  0.00	  0.00	
     3.04000	    0.000	  0.00	  0.00	
     3.05000	    0.000	  0.00	  0.00	
     3.06000	    0.000	  0.00	  0.00	
     3.07000	    0.000	  0.00	  0.00	
     3.08000	    0.000	  0.00	  0.00	
     3.09000	    0.000	  0.00	  0.00	
     3.10000	    0.000	  0.00	  0.00	
     3.11000	    0.000	  0.00	  0.00	
     3.12000	    0.000	  0.00	  0.00	
     3.13000	    0.000	  0.00	  0.00	
     3.14000	    0.000	  0.00	  0.00	
     3.15000	    0.000	  0.00	  0.00	
     3.16000	    0.000	  0.00	  0.00	
     3.17000	    0.000	  0.00	  0.00	
     3.18000	    2.000	 95.00	 15.00	
     3.19000	    0.000	  0.00	  0.00	
     3.20000	    0.000	  0.00	  0.00	
     3.21000	    0.000	  0.00	  0.00	
     3.22000	    0.000	  0.00	  0.00	
     3.23000	    0.000	  0.00	  0.00	
     3.24000	    0.000	  0.00	  0.00	
     3.25000	    2.000	 15.00	 75.00	
     3.26000	    2.000	 15.00	 75.00	
     3.27000	    2.500	 15.00	 75.00	
     3.28000	    2.500	 15.00	 75.00	
     3.29000	    4.500	 15.00	 79.44	
     3.30000	    5.000	 15.00	 79.00	
     3.31000	   11.000	 18.64	 78.64	
     3.32000	   12.000	 18.33	 77.92	
     3.33000	   12.000	 18.33	 77.92	
     3.34000	   13.000	 18.46	 78.85	
     3.35000	   13.500	 18.33	 78.70	
     3.36000	   13.500	 18.70	 79.07	
     3.37000	   14.000	 18.57	 79.29	
     3.38000	   14.500	 18.45	 78.79	
     3.39000	   17.000	 16.76	 78.24	
     3.40000	   17.500	 16.71	 77.86	
     3.41000	   17.500	 16.71	 77.86	
     3.42000	   18.000	 16.39	 77.50	
     3.43000	   18.000	 16.39	 77.50	
     3.44000	   19.000	 16.58	 77.63	
     3.45000	   18.500	 16.35	 77.16	
     3.46000	   17.000	 15.59	 77.94	
     3.47000	   17.500	 15.57	 77.86	
     3.48000	   19.500	 15.51	 79.62	
     3.49000	   16.000	 15.94	 77.50	
     3.50000	   16.000	 15.94	 77.50	
     3.51000	   17.500	 15.57	 79.00	
     3.52000	   17.500	 15.57	 79.00	
     3.53000	   17.500	 15.57	 79.00	
     3.54000	   17.000	 15.29	 78.53	
     3.55000	   15.500	 15.00	 76.29	
     3.56000	   15.000	 14.67	 75.67	
     3.57000	   14.000	 14.29	 75.00	
     3.58000	   13.000	 12.69	 75.38	
     3.59000	   13.000	 12.69	 75.38	
     3.60000	   12.000	 12.50	 75.83	
     3.61000	    9.000	 12.22	 72.22	
     3.62000	    8.500	 12.06	 72.06	
     3.63000	    7.500	 11.67	 72.33	
     3.64000	    5.000	 10.00	 75.00	
     3.65000	    4.500	 10.56	 75.00	
     3.66000	    4.500	 10.56	 75.00	
     3.67000	    2.000	 15.00	 75.00	
     3.68000	    0.000	  0.00	  0.00	
     3.69000	    0.000	  0.00	  0.00	
     3.70000	    2.000	 95.00	 15.00	
     3.71000	    2.000	 95.00	 15.00	
     3.72000	    2.000	 95.00	 15.00	
     3.73000	    2.000	 95.00	 15.00	
     3.74000	    2.000	 95.00	 15.00	
     3.75000	    2.000	 95.00	 15.00	
     3.76000	    0.000	  0.00	  0.00	
     3.77000	    2.000	 95.00	 15.00	
     3.78000	    2.000	 95.00	 15.00	
     3.79000	    2.000	 95.00	 15.00	
     3.80000	    2.000	 95.00	 15.00	
     3.81000	    2.000	 95.00	 15.00	
     3.82000	    2.000	 95.00	 15.00	
     3.83000	    2.000	 95.00	 15.00	
     3.84000	    2.000	 95.00	 15.00	
     3.85000	    2.000	 95.00	 15.00	
     3.86000	    2.000	 95.00	 15.00	
     3.87000	    2.000	 95.00	 15.00	
     3.88000	    2.000	 95.00	 15.00	
     3.89000	    0.000	  0.00	  0.00	
     3.90000	    0.000	  0.00	  0.00	
     3.91000	    0.000	  0.00	  0.00	
     3.92000	    0.000	  0.00	  0.00	
     3.93000	    0.000	  0.00	  0.00	
     3.94000	    0.000	  0.00	  0.00	
     3.95000	    0.000	  0.00	  0.00	
     3.96000	    0.000	  0.00	  0.00	
     3.97000	    0.000	  0.00	  0.00	
     3.98000	    0.000	  0.00	  0.00	
     3.99000	    0.000	  0.00	  0.00	
     4.00000	    0.000	  0.00	  0.00	
     4.01000	    0.000	  0.00	  0.00	
     4.02000	    0.000	  0.00	  0.00	
     4.03000	    0.000	  0.00	  0.00	
     4.04000	    2.000	 95.00	 15.00	
     4.05000	    0.000	  0.00	  0.00	
     4.06000	    0.000	  0.00	  0.00	
     4.07000	    0.000	  0.00	  0.00	
     4.08000	    0.000	  0.00	  0.00	
     4.09000	    0.000	  0.00	  0.00	
     4.10000	    0.000	  0.00	  0.00	
     4.11000	    0.000	  0.00	  0.00	
     4.12000	    0.000	  0.00	  0.00	
     4.13000	    0.000	  0.00	  0.00	
     4.14000	    0.000	  0.00	  0.00	
     4.15000	    0.000	  0.00	  0.00	
     4.16000	    0.000	  0.00	  0.00	
     4.17000	    0.000	  0.00	  0.00	
     4.18000	    0.000	  0.00	  0.00	
     4.19000	    0.000	  0.00	  0.00	
     4.20000	    0.000	  0.00	  0.00	
     4.21000	    0.000	  0.00	  0.00	
     4.22000	    0.000	  0.00	  0.00	
     4.23000	    0.000	  0.00	  0.00	
     4.24000	    0.000	  0.00	  0.00	
     4.25000	    0.000	  0.00	  0.00	
     4.26000	    0.000	  0.00	  0.00	
     4.27000	    0.000	  0.00	  0.00	
     4.28000	    0.000	  0.00	  0.00	
     4.29000	    0.000	  0.00	  0.00	
     4.30000	    2.000	 95.00	 15.00	
     4.31000	    0.000	  0.00	  0.00	
     4.32000	    2.000	 95.00	 15.00	
     4.33000	    2.000	 95.00	 15.00	
     4.34000	    4.000	100.00	 20.00	
     4.35000	    6.000	101.67	 18.33	
     4.36000	    6.000	101.67	 18.33	
     4.37000	    6.000	101.67	 18.33	
     4.38000	    6.000	101.67	 18.33	
     4.39000	    6.000	101.67	 18.33	
     4.40000	    6.000	101.67	 18.33	
     4.41000	    6.000	101.67	 18.33	
     4.42000	    6.000	101.67	 18.33	
     4.43000	    6.000	101.67	 18.33	
     4.44000	    6.000	101.67	 18.33	
     4.45000	    6.000	101.67	 18.33	
     4.46000	    6.000	101.67	 18.33	
     4.47000	    6.000	101.67	 18.33	
     4.48000	    6.000	101.67	 18.33	
     4.49000	    8.000	100.00	 15.00	
     4.50000	    6.000	101.67	 18.33	
     4.51000	    6.000	101.67	 18.33	
     4.52000	    6.000	101.67	 18.33	
     4.53000	    6.000	101.67	 18.33	
     4.54000	    6.000	101.67	 18.33	
     4.55000	    6.000	101.67	 18.33	
     4.56000	    6.000	101.67	 18.33	
     4.57000	    8.000	100.00	 15.00	
     4.58000	    8.000	100.00	 15.00	
     4.59000	    6.000	101.67	 18.33	
     4.60000	    8.000	100.00	 15.00	
     4.61000	    8.000	100.00	 15.00	
     4.62000	    8.000	100.00	 15.00	
     4.63000	    8.000	100.00	 15.00	
     4.64000	    6.000	101.67	 18.33	
     4.65000	    8.000	100.00	 15.00	
     4.66000	    8.000	100.00	 15.00	
     4.67000	    8.000	100.00	 15.00	
     4.68000	    8.000	100.00	 15.00	
     4.69000	    8.000	100.00	 15.00	
     4.70000	    8.000	100.00	 15.00	
     4.71000	   10.000	 97.00	 15.00	
     4.72000	    8.000	100.00	 15.00	
     4.73000	   10.000	 97.00	 15.00	
     4.74000	    8.000	100.00	 15.00	
     4.75000	    8.000	100.00	 15.00	
     4.76000	    8.000	100.00	 15.00	
     4.77000	    8.000	100.00	 15.00	
     4.78000	    8.000	100.00	 15.00	
     4.79000	   10.000	 97.00	 15.00	
     4.80000	   10.000	 97.00	 15.00	
     4.81000	   10.000	 97.00	 15.00	
     4.82000	   10.000	 97.00	 15.00	
     4.83000	    8.000	100.00	 15.00	
     4.84000	   10.000	 97.00	 15.00	
     4.85000	    8.000	100.00	 15.00	
     4.86000	   10.000	 97.00	 15.00	
     4.87000	   10.000	 97.00	 15.00	
     4.88000	    8.000	100.00	 15.00	
     4.89000	    8.000	100.00	 15.00	
     4.90000	    8.000	100.00	 15.00	
     4.91000	    8.000	100.00	 15.00	
     4.92000	    6.000	101.67	 18.33	
     4.93000	    6.000	101.67	 18.33	
     4.94000	    8.000	100.00	 15.00	
     4.95000	    8.000	100.00	 15.00	
     4.96000	    6.000	101.67	 18.33	
     4.97000	    6.000	101.67	 18.33	
     4.98000	    6.000	101.67	 18.33	
     4.99000	    8.000	100.00	 15.00	
     5.00000	    8.000	100.00	 15.00	
     5.01000	    6.000	101.67	 18.33	
     5.02000	    6.000	101.67	 18.33	
     5.03000	    6.000	101.67	 18.33	
     5.04000	    6.000	101.67	 18.33	
     5.05000	    6.000	101.67	 18.33	
     5.06000	    4.000	100.00	 20.00	
     5.07000	    6.000	101.67	 18.33	
     5.08000	    6.000	101.67	 18.33	
     5.09000	    6.000	101.67	 18.33	
     5.10000	    6.000	101.67	 18.33	
     5.11000	    6.000	101.67	 18.33	
     5.12000	    6.000	101.67	 18.33	
     5.13000	    6.000	101.67	 18.33	
     5.14000	    6.000	101.67	 18.33	
     5.15000	    6.000	101.67	 18.33	
     5.16000	    6.000	101.67	 18.33	
     5.17000	    6.000	101.67	 18.33	
     5.18000	    6.000	101.67	 18.33	
     5.19000	    4.000	100.00	 20.00	
     5.20000	    6.000	101.67	 18.33	
     5.21000	    6.000	101.67	 18.33	
     5.22000	    6.000	101.67	 18.33	
     5.23000	    6.000	101.67	 18.33	
     5.24000	    6.000	101.67	 18.33	
     5.25000	    6.000	101.67	 18.33	
     5.26000	    6.000	101.67	 18.33	
     5.27000	    6.000	101.67	 18.33	
     5.28000	    6.000	101.67	 18.33	
     5.29000	    6.000	101.67	 18.33	
     5.30000	    6.000	101.67	 18.33	
     5.31000	    6.000	101.67	 18.33	
     5.32000	    6.000	101.67	 18.33	
     5.33000	    6.000	101.67	 18.33	
     5.34000	    6.000	101.67	 18.33	
     5.35000	    6.000	101.67	 18.33	
     5.36000	    6.000	101.67	 18.33	
     5.37000	    6.000	101.67	 18.33	
     5.38000	    6.000	101.67	 18.33	
     5.39000	    6.000	101.67	 18.33	
     5.40000	    4.000	100.00	 20.00	
     5.41000	    6.000	101.67	 18.33	
     5.42000	    6.000	101.67	 18.33	
     5.43000	    6.000	101.67	 18.33	
     5.44000	    6.000	101.67	 18.33	
     5.45000	    6.000	101.67	 18.33	
     5.46000	    6.000	101.67	 18.33	
     5.47000	    6.000	101.67	 18.33	
     5.48000	    6.000	101.67	 18.33	
     5.49000	    6.000	101.67	 18.33	
     5.50000	    6.000	101.67	 18.33	
     5.51000	    6.000	101.67	 18.33	
     5.52000	    6.000	101.67	 18.33	
     5.53000	    8.000	100.00	 15.00	
     5.54000	    6.000	101.67	 18.33	
     5.55000	    6.000	101.67	 18.33	
     5.56000	    8.000	100.00	 15.00	
     5.57000	    6.000	101.67	 18.33	
     5.58000	    6.000	101.67	 18.33	
     5.59000	    6.000	101.67	 18.33	
     5.60000	    6.000	101.67	 18.33	
     5.61000	    6.000	101.67	 18.33	
     5.62000	    6.000	101.67	 18.33	
     5.63000	    6.000	101.67	 18.33	
     5.64000	   10.000	 97.00	 15.00	
     5.65000	    6.000	101.67	 18.33	
     5.66000	    8.000	100.00	 15.00	
     5.67000	    8.000	100.00	 15.00	
     5.68000	   10.000	 97.00	 15.00	
     5.69000	    8.000	100.00	 15.00	
     5.70000	    8.000	100.00	 15.00	
     5.71000	    8.000	100.00	 15.00	
     5.72000	    8.000	100.00	 15.00	
     5.73000	   10.000	 97.00	 15.00	
     5.74000	   10.000	 97.00	 15.00	
     5.75000	   10.000	 97.00	 15.00	
     5.76000	   10.000	 97.00	 15.00	
     5.77000	    8.000	 97.50	 17.50	
     5.78000	   10.000	 97.00	 15.00	
     5.79000	   12.000	 96.67	 16.67	
     5.80000	   10.000	 97.00	 15.00	
     5.81000	   12.000	 96.67	 16.67	
     5.82000	   12.000	 96.67	 16.67	
     5.83000	   12.000	 96.67	 16.67	
     5.84000	   12.000	 96.67	 16.67	
     5.85000	   12.000	 96.67	 16.67	
     5.86000	   12.500	 97.00	 17.00	
     5.87000	   12.500	 97.00	 17.00	
     5.88000	   12.000	 96.67	 16.67	
     5.89000	   12.500	 97.00	 17.00	
     5.90000	   12.000	 96.67	 16.67	
     5.91000	   12.000	 96.67	 16.67	
     5.92000	   12.500	 97.00	 17.00	
     5.93000	   12.500	 97.00	 17.00	
     5.94000	   12.500	 97.00	 17.00	
     5.95000	   13.000	 97.31	 16.92	
     5.96000	   13.000	 97.31	 16.92	
     5.97000	   13.000	 96.54	 16.92	
     5.98000	   13.000	 97.31	 16.92	
     5.99000	   13.000	 97.31	 16.92	
     6.00000	   15.000	 95.67	 15.33	
     6.01000	   15.500	 95.65	 15.00	
     6.02000	   15.500	 95.32	 15.32	
     6.03000	   15.500	 95.65	 15.00	
     6.04000	   16.000	 95.31	 15.00	
     6.05000	   15.500	 95.32	 15.32	
     6.06000	   14.000	 96.79	 16.79	
     6.07000	   16.000	 95.31	 15.31	
     6.08000	   14.000	 96.79	 16.79	
     6.09000	   16.500	 95.30	 15.00	
     6.10000	   14.500	 96.72	 16.38	
     6.11000	   18.500	 96.35	 13.92	
     6.12000	   18.000	 86.39	 21.94	
     6.13000	   16.500	 95.30	 15.00	
     6.14000	   14.500	 96.72	 16.38	
     6.15000	   16.500	 97.73	 15.00	
     6.16000	   18.500	 96.35	 13.92	
     6.17000	   18.500	 96.35	 13.92	
     6.18000	   18.500	 96.35	 13.92	
     6.19000	   20.500	 88.41	 19.88	
     6.20000	   18.500	 96.35	 13.92	
     6.21000	   20.500	 88.41	 19.88	
     6.22000	   18.500	 96.35	 13.92	
     6.23000	   20.500	 88.41	 19.88	
     6.24000	   18.500	 95.27	 29.05	
     6.25000	   18.500	 96.35	 13.92	
     6.26000	   20.500	 96.22	 26.71	
     6.27000	   18.500	 96.35	 13.92	
     6.28000	   21.000	 88.57	 19.76	
     6.29000	   21.000	 88.57	 19.76	
     6.30000	   18.500	 96.35	 13.92	
     6.31000	   21.000	 88.57	 19.76	
     6.32000	   19.500	 96.54	 14.23	
     6.33000	   21.000	 88.57	 19.76	
     6.34000	   21.000	 96.19	 26.43	
     6.35000	   19.500	 96.54	 14.23	
     6.36000	   23.500	 89.47	 30.53	
     6.37000	   21.500	 88.95	 19.88	
     6.38000	   21.500	 88.95	 19.88	
     6.39000	   23.000	 89.13	 30.65	
     6.40000	   23.500	 89.47	 30.53	
     6.41000	   23.000	 89.13	 30.65	
     6.42000	   21.500	 88.95	 19.88	
     6.43000	   22.500	 89.00	 31.00	
     6.44000	   21.500	 88.95	 19.88	
     6.45000	   23.500	 89.47	 30.53	
     6.46000	   24.000	 89.58	 30.42	
     6.47000	   24.000	 89.58	 30.42	
     6.48000	   21.500	 88.95	 19.88	
     6.49000	   21.500	 88.95	 19.88	
     6.50000	   24.000	 89.58	 30.42	
     6.51000	   24.000	 89.58	 30.42	
     6.52000	   24.000	 89.58	 30.42	
     6.53000	   23.500	 89.47	 30.53	
     6.54000	   23.500	 89.47	 30.53	
     6.55000	   23.500	 89.47	 30.53	
     6.56000	   23.500	 89.47	 30.53	
     6.57000	   24.000	 89.58	 30.42	
     6.58000	   23.500	 89.47	 30.53	
     6.59000	   25.500	 89.12	 30.10	
     6.60000	   24.000	 89.79	 30.00	
     6.61000	   24.000	 89.79	 30.00	
     6.62000	   24.000	 89.79	 30.00	
     6.63000	   22.000	 89.09	 20.00	
     6.64000	   24.000	 89.79	 30.00	
     6.65000	   23.500	 89.47	 30.53	
     6.66000	   23.500	 89.47	 30.53	
     6.67000	   26.000	 89.23	 30.00	
     6.68000	   24.000	 89.58	 30.42	
     6.69000	   24.500	 89.90	 29.90	
     6.70000	   24.000	 89.58	 30.42	
     6.71000	   23.500	 89.47	 30.53	
     6.72000	   24.000	 89.58	 30.42	
     6.73000	   24.500	 89.90	 29.90	
     6.74000	   21.500	 88.95	 19.88	
     6.75000	   23.500	 89.47	 30.53	
     6.76000	   23.500	 89.47	 30.53	
     6.77000	   23.500	 89.47	 30.53	
     6.78000	   21.500	 88.95	 19.88	
     6.79000	   23.000	 89.13	 30.65	
     6.80000	   21.500	 88.95	 19.88	
     6.81000	   23.000	 89.13	 30.65	
     6.82000	   23.500	 89.47	 30.53	
     6.83000	   23.500	 89.47	 30.53	
     6.84000	   23.500	 89.47	 30.53	
     6.85000	   23.500	 89.47	 30.53	
     6.86000	   23.500	 89.47	 30.53	
     6.87000	   26.000	 89.23	 30.00	
     6.88000	   24.000	 89.58	 30.42	
     6.89000	   24.000	 89.58	 30.42	
     6.90000	   26.000	 89.23	 30.00	
     6.91000	   28.500	 89.91	 29.91	
     6.92000	   26.500	 89.53	 29.53	
     6.93000	   27.000	 89.81	 29.26	
     6.94000	   28.000	 89.64	 30.36	
     6.95000	   29.000	 90.17	 29.66	
     6.96000	   28.000	 89.64	 30.36	
     6.97000	   28.500	 89.91	 29.91	
     6.98000	   28.500	 89.91	 29.91	
     6.99000	   26.000	 89.23	 30.00	
     7.00000	   26.500	 89.53	 29.72	
     7.01000	   25.500	 89.12	 30.10	
     7.02000	   26.000	 89.23	 30.00	
     7.03000	   23.500	 89.47	 30.53	
     7.04000	   24.000	 89.58	 30.42	
     7.05000	   24.000	 89.79	 30.00	
     7.06000	   23.500	 89.47	 30.53	
     7.07000	   25.500	 89.12	 30.10	
     7.08000	   23.500	 89.47	 30.53	
     7.09000	   23.500	 89.47	 30.53	
     7.10000	   23.500	 89.47	 30.53	
     7.11000	   23.500	 89.47	 30.53	
     7.12000	   25.500	 89.12	 30.10	
     7.13000	   26.000	 89.23	 30.00	
     7.14000	   26.000	 89.23	 30.00	
     7.15000	   27.000	 89.81	 29.26	
     7.16000	   29.000	 90.17	 29.66	
     7.17000	   29.000	 90.17	 29.66	
     7.18000	   29.000	 90.17	 29.66	
     7.19000	   28.000	 89.64	 30.36	
     7.20000	   29.500	 90.25	 29.41	
     7.21000	   29.000	 90.17	 29.66	
     7.22000	   29.000	 90.00	 29.83	
     7.23000	   28.500	 89.91	 29.91	
     7.24000	   29.000	 90.17	 29.66	
     7.25000	   29.000	 90.17	 29.66	
     7.26000	   29.000	 90.17	 29.66	
     7.27000	   28.500	 89.91	 29.91	
     7.28000	   25.500	 90.29	 29.31	
     7.29000	   29.000	 90.17	 29.66	
     7.30000	   29.000	 90.17	 29.66	
     7.31000	   30.500	 88.93	 28.93	
     7.32000	   28.500	 89.91	 29.91	
     7.33000	   26.500	 89.53	 29.53	
     7.34000	   28.500	 89.91	 30.09	
     7.35000	   28.500	 89.91	 30.09	
     7.36000	   29.000	 90.17	 29.66	
     7.37000	   28.000	 88.21	 28.93	
     7.38000	   26.500	 89.53	 29.53	
     7.39000	   29.500	 90.25	 29.41	
     7.40000	   32.000	 89.22	 28.28	
     7.41000	   32.000	 89.22	 28.28	
     7.42000	   31.500	 89.29	 28.49	
     7.43000	   30.000	 90.17	 29.17	
     7.44000	   31.500	 89.29	 28.49	
     7.45000	   29.000	 90.17	 29.66	
     7.46000	   29.500	 90.25	 29.41	
     7.47000	   32.000	 89.22	 28.28	
     7.48000	   30.000	 90.17	 29.17	
     7.49000	   31.500	 89.29	 28.49	
     7.50000	   30.000	 90.17	 29.17	
     7.51000	   30.000	 90.17	 29.17	
     7.52000	   32.000	 89.22	 28.28	
     7.53000	   30.000	 90.17	 29.17	
     7.54000	   30.000	 90.17	 29.17	
     7.55000	   31.500	 89.29	 28.49	
     7.56000	   31.500	 89.29	 28.49	
     7.57000	   32.000	 89.22	 28.28	
     7.58000	   31.500	 89.29	 28.49	
     7.59000	   29.000	 90.17	 29.66	
     7.60000	   31.500	 89.29	 28.49	
     7.61000	   31.000	 89.19	 28.71	
     7.62000	   31.500	 89.29	 28.49	
     7.63000	   29.500	 90.25	 29.41	
     7.64000	   31.500	 89.29	 28.49	
     7.65000	   31.000	 89.19	 28.71	
     7.66000	   31.500	 89.13	 28.49	
     7.67000	   29.000	 90.17	 29.66	
     7.68000	   29.500	 90.25	 29.41	
     7.69000	   29.000	 90.17	 29.66	
     7.70000	   29.000	 90.17	 29.66	
     7.71000	   31.500	 89.29	 28.49	
     7.72000	   29.500	 90.25	 29.41	
     7.73000	   29.000	 90.17	 29.66	
     7.74000	   29.500	 90.25	 29.41	
     7.75000	   29.000	 90.17	 29.66	
     7.76000	   29.500	 90.25	 29.41	
     7.77000	   29.000	 90.17	 29.66	
     7.78000	   29.000	 90.17	 29.66	
     7.79000	   29.000	 90.17	 29.66	
     7.80000	   29.500	 90.08	 29.41	
     7.81000	   28.500	 89.91	 29.91	
     7.82000	   31.000	 89.19	 28.71	
     7.83000	   29.000	 90.17	 29.66	
     7.84000	   29.000	 90.17	 29.66	
     7.85000	   31.000	 89.19	 28.71	
     7.86000	   29.000	 90.17	 29.66	
     7.87000	   29.000	 90.17	 29.66	
     7.88000	   29.000	 90.17	 29.66	
     7.89000	   29.500	 90.08	 29.41	
     7.90000	   31.500	 89.29	 28.49	
     7.91000	   29.500	 90.08	 29.41	
     7.92000	   29.000	 90.17	 29.66	
     7.93000	   31.000	 89.19	 28.71	
     7.94000	   29.000	 90.17	 29.66	
     7.95000	   29.500	 90.25	 29.41	
     7.96000	   31.500	 89.29	 28.49	
     7.97000	   31.500	 89.29	 28.49	
     7.98000	   29.500	 90.25	 29.41	
     7.99000	   29.500	 90.25	 29.41	
     8.00000	   31.000	 89.19	 28.71	
     8.01000	   29.500	 90.25	 29.41	
     8.02000	   29.000	 90.17	 29.66	
     8.03000	   29.000	 90.17	 29.66	
     8.04000	   29.500	 90.25	 29.41	
     8.05000	   30.000	 90.17	 29.17	
     8.06000	   30.000	 90.17	 29.17	
     8.07000	   31.500	 89.29	 28.49	
     8.08000	   29.000	 88.79	 28.28	
     8.09000	   31.500	 89.29	 28.49	
     8.10000	   31.000	 89.19	 28.71	
     8.11000	   32.000	 89.38	 28.13	
     8.12000	   29.500	 88.90	 28.05	
     8.13000	   29.500	 90.25	 29.41	
     8.14000	   31.500	 89.29	 28.49	
     8.15000	   29.500	 90.25	 29.41	
     8.16000	   29.500	 88.90	 28.05	
     8.17000	   30.000	 90.17	 29.17	
     8.18000	   27.500	 89.91	 29.00	
     8.19000	   28.500	 89.91	 29.91	
     8.20000	   31.000	 89.19	 28.71	
     8.21000	   29.000	 90.17	 29.66	
     8.22000	   29.500	 90.25	 29.41	
     8.23000	   29.000	 90.17	 29.66	
     8.24000	   29.000	 90.17	 29.66	
     8.25000	   30.000	 90.17	 29.17	
     8.26000	   29.500	 90.25	 29.41	
     8.27000	   29.500	 90.25	 29.41	
     8.28000	   29.500	 90.25	 29.41	
     8.29000	   32.000	 89.22	 28.28	
     8.30000	   31.500	 89.29	 28.49	
     8.31000	   31.500	 89.29	 28.49	
     8.32000	   29.500	 90.25	 29.41	
     8.33000	   29.500	 90.25	 31.61	
     8.34000	   29.000	 90.17	 29.66	
     8.35000	   31.000	 89.19	 28.71	
     8.36000	   29.500	 90.25	 29.41	
     8.37000	   29.000	 90.17	 29.66	
     8.38000	   29.500	 90.25	 29.41	
     8.39000	   26.500	 89.53	 29.72	
     8.40000	   26.500	 89.53	 29.53	
     8.41000	   29.000	 90.17	 29.66	
     8.42000	   27.000	 89.81	 29.26	
     8.43000	   26.500	 89.53	 29.53	
     8.44000	   27.000	 89.81	 29.26	
     8.45000	   24.000	 89.58	 30.42	
     8.46000	   24.500	 89.90	 30.10	
     8.47000	   26.500	 89.53	 29.53	
     8.48000	   24.500	 89.90	 29.90	
     8.49000	   24.000	 89.79	 30.00	
     8.50000	   24.500	 89.90	 30.10	
     8.51000	   25.500	 89.12	 30.10	
     8.52000	   23.500	 89.47	 30.53	
     8.53000	   23.500	 89.47	 30.53	
     8.54000	   23.500	 89.47	 30.53	
     8.55000	   23.500	 89.47	 30.53	
     8.56000	   23.500	 89.47	 30.53	
     8.57000	   23.500	 89.47	 30.53	
     8.58000	   23.500	 89.47	 30.53	
     8.59000	   23.000	 89.13	 30.65	
     8.60000	   23.500	 89.47	 30.53	
     8.61000	   23.000	 89.13	 30.65	
     8.62000	   23.000	 89.13	 30.65	
     8.63000	   22.500	 89.00	 31.00	
     8.64000	   21.000	 96.19	 26.43	
     8.65000	   20.500	 96.22	 26.71	
     8.66000	   20.500	 96.22	 26.71	
     8.67000	   20.500	 96.22	 26.71	
     8.68000	   20.500	 96.22	 26.71	
     8.69000	   20.500	 96.22	 26.71	
     8.70000	   20.500	 96.22	 26.71	
     8.71000	   20.500	 96.22	 26.71	
     8.72000	   20.500	 96.22	 26.71	
     8.73000	   20.500	 96.22	 26.71	
     8.74000	   18.500	 95.27	 29.05	
     8.75000	   18.500	 95.27	 29.05	
     8.76000	   16.500	 95.30	 15.00	
     8.77000	   18.500	 95.27	 29.05	
     8.78000	   16.000	 95.31	 15.00	
     8.79000	   15.500	 95.65	 15.00	
     8.80000	   15.000	 95.33	 15.00	
     8.81000	   15.000	 95.33	 15.00	
     8.82000	   15.500	 95.65	 15.00	
     8.83000	   15.000	 95.33	 15.00	
     8.84000	   12.500	 96.60	 16.20	
     8.85000	   15.000	 95.33	 15.00	
     8.86000	   14.000	 95.00	 15.00	
     8.87000	   14.500	 95.34	 15.00	
     8.88000	   14.500	 95.00	 14.66	
     8.89000	   12.000	 96.67	 16.67	
     8.90000	   12.500	 96.60	 16.20	
     8.91000	   12.000	 96.67	 16.67	
     8.92000	   12.000	 96.67	 16.67	
     8.93000	   10.000	 97.00	 15.00	
     8.94000	   10.000	 97.00	 15.00	
     8.95000	   10.000	 97.00	 15.00	
     8.96000	   10.000	 97.00	 15.00	
     8.97000	   10.000	 97.00	 15.00	
     8.98000	   10.000	 97.00	 15.00	
     8.99000	   10.000	 97.00	 15.00	
     9.00000	   10.000	 97.00	 15.00	
     9.01000	   10.000	 97.00	 15.00	
     9.02000	   10.000	 97.00	 15.00	
     9.03000	    8.000	100.00	 15.00	
     9.04000	   10.000	 97.00	 15.00	
     9.05000	    8.000	100.00	 15.00	
     9.06000	    8.000	100.00	 15.00	
     9.07000	    8.000	100.00	 15.00	
     9.08000	   10.000	 97.00	 15.00	
     9.09000	    8.000	100.00	 15.00	
     9.10000	    8.000	100.00	 15.00	
     9.11000	    8.000	100.00	 15.00	
     9.12000	    6.000	 98.33	 11.67	
     9.13000	    6.000	 98.33	 11.67	
     9.14000	    6.000	 98.33	 11.67	
     9.15000	    6.000	 98.33	 11.67	
     9.16000	    6.000	 98.33	 11.67	
     9.17000	    4.000	 95.00	 10.00	
     9.18000	    4.000	 95.00	 10.00	
     9.19000	    4.000	 95.00	 10.00	
     9.20000	    4.000	 95.00	 10.00	
     9.21000	    2.000	 95.00	 15.00	
     9.22000	    2.000	 95.00	 15.00	
     9.23000	    4.000	 95.00	 10.00	
     9.24000	    2.000	 95.00	 15.00	
     9.25000	    0.000	  0.00	  0.00	
     9.26000	    0.000	  0.00	  0.00	
     9.27000	    2.000	 95.00	 15.00	
     9.28000	    0.000	  0.00	  0.00	
     9.29000	    2.000	 95.00	 15.00	
     9.30000	    0.000	  0.00	  0.00	
     9.31000	    2.000	 95.00	 15.00	
     9.32000	    2.000	 95.00	 15.00	
     9.33000	    2.000	 95.00	 15.00	
     9.34000	    0.000	  0.00	  0.00	
     9.35000	    0.000	  0.00	  0.00	
     9.36000	    0.000	  0.00	  0.00	
     9.37000	    0.000	  0.00	  0.00	
     9.38000	    0.000	  0.00	  0.00	
     9.39000	    0.000	  0.00	  0.00	
     9.40000	    0.000	  0.00	  0.00	
     9.41000	    0.000	  0.00	  0.00	
     9.42000	    0.000	  0.00	  0.00	
     9.43000	    0.000	  0.00	  0.00	
     9.44000	    0.000	  0.00	  0.00	
     9.45000	    0.000	  0.00	  0.00	
     9.46000	    0.000	  0.00	  0.00	
     9.47000	    0.000	  0.00	  0.00	
     9.48000	    0.000	  0.00	  0.00	
     9.49000	    0.000	  0.00	  0.00	
     9.50000	    0.000	  0.00	  0.00	
     9.51000	    0.000	  0.00	  0.00	
     9.52000	    0.000	  0.00	  0.00	
     9.53000	    0.000	  0.00	  0.00	
     9.54000	    0.000	  0.00	  0.00	
     9.55000	    0.000	  0.00	  0.00	
     9.56000	    0.000	  0.00	  0.00	
     9.57000	    0.000	  0.00	  0.00	
     9.58000	    0.000	  0.00	  0.00	
     9.59000	    0.000	  0.00	  0.00	
     9.60000	    0.000	  0.00	  0.00	
     9.61000	    0.000	  0.00	  0.00	
     9.62000	    0.000	  0.00	  0.00	
     9.63000	    0.000	  0.00	  0.00	
     9.64000	    0.000	  0.00	  0.00	
     9.65000	    0.000	  0.00	  0.00	
     9.66000	    0.000	  0.00	  0.00	
     9.67000	    0.000	  0.00	  0.00	
     9.68000	    0.000	  0.00	  0.00	
     9.69000	    0.000	  0.00	  0.00	
     9.70000	    0.000	  0.00	  0.00	
     9.71000	    0.000	  0.00	  0.00	
     9.72000	    0.000	  0.00	  0.00	
     9.73000	    0.000	  0.00	  0.00	
     9.74000	    0.000	  0.00	  0.00	
     9.75000	    0.000	  0.00	  0.00	
     9.76000	    0.000	  0.00	  0.00	
     9.77000	    0.000	  0.00	  0.00	
     9.78000	    0.000	  0.00	  0.00	
     9.79000	    0.000	  0.00	  0.00	
     9.80000	    0.000	  0.00	  0.00	
     9.81000	    0.000	  0.00	  0.00	
     9.82000	    0.000	  0.00	  0.00	
     9.83000	    0.000	  0.00	  0.00	
     9.84000	    0.000	  0.00	  0.00	
     9.85000	    0.000	  0.00	  0.00	
     9.86000	    0.000	  0.00	  0.00	
     9.87000	    0.000	  0.00	  0.00	
     9.88000	    0.000	  0.00	  0.00	
     9.89000	    0.000	  0.00	  0.00	
     9.90000	    0.000	  0.00	  0.00	
     9.91000	    0.000	  0.00	  0.00	
     9.92000	    0.000	  0.00	  0.00	
     9.93000	    0.000	  0.00	  0.00	
     9.94000	    0.000	  0.00	  0.00	
     9.95000	    0.000	  0.00	  0.00	
     9.96000	    0.000	  0.00	  0.00	
     9.97000	    0.000	  0.00	  0.00	
     9.98000	    0.000	  0.00	  0.00	
     9.99000	    0.000	  0.00	  0.00	
    10.00000	    0.000	  0.00	  0.00	
    10.01000	    0.000	  0.00	  0.00	
    10.02000	    0.000	  0.00	  0.00	
    10.03000	    0.000	  0.00	  0.00	
    10.04000	    0.000	  0.00	  0.00	
    10.05000	    0.000	  0.00	  0.00	
    10.06000	    0.000	  0.00	  0.00	
    10.07000	    0.000	  0.00	  0.00	
    10.08000	    0.000	  0.00	  0.00	
    10.09000	    0.000	  0.00	  0.00	
    10.10000	    0.000	  0.00	  0.00	
    10.11000	    0.000	  0.00	  0.00	
    10.12000	    0.000	  0.00	  0.00	
    10.13000	    0.000	  0.00	  0.00	
    10.14000	    0.000	  0.00	  0.00	
    10.15000	    0.000	  0.00	  0.00	
    10.16000	    0.000	  0.00	  0.00	
    10.17000	    0.000	  0.00	  0.00	
    10.18000	    0.000	  0.00	  0.00	
    10.19000	    0.000	  0.00	  0.00	
    10.20000	    0.000	  0.00	  0.00	
    10.21000	    0.000	  0.00	  0.00	
    10.22000	    0.000	  0.00	  0.00	
    10.23000	    2.000	 95.00	 15.00	
    10.24000	    0.000	  0.00	  0.00	
    10.25000	    0.000	  0.00	  0.00	
    10.26000	    2.000	 95.00	 15.00	
    10.27000	    0.000	  0.00	  0.00	
    10.28000	    0.000	  0.00	  0.00	
    10.29000	    2.000	 95.00	 15.00	
    10.30000	    0.000	  0.00	  0.00	
    10.31000	    0.000	  0.00	  0.00	
    10.32000	    2.000	 95.00	 15.00	
    10.33000	    2.000	 95.00	 15.00	
    10.34000	    2.000	 95.00	 15.00	
    10.35000	    2.000	 95.00	 15.00	
    10.36000	    4.000	 95.00	 10.00	
    10.37000	    2.000	 95.00	 15.00	
    10.38000	    2.000	 95.00	 15.00	
    10.39000	    2.000	 95.00	 15.00	
    10.40000	    4.000	100.00	 15.00	
    10.41000	    2.000	 95.00	 15.00	
    10.42000	    2.000	 95.00	 15.00	
    10.43000	    4.000	 95.00	 10.00	
    10.44000	    2.000	 95.00	 15.00	
    10.45000	    4.000	100.00	 15.00	
    10.46000	    6.000	 98.33	 11.67	
    10.47000	    6.000	 98.33	 11.67	
    10.48000	    2.000	 95.00	 15.00	
    10.49000	    4.000	100.00	 15.00	
    10.50000	    6.000	 98.33	 11.67	
    10.51000	    6.000	 98.33	 11.67	
    10.52000	    4.000	100.00	 15.00	
    10.53000	    4.000	100.00	 15.00	
    10.54000	    6.000	 98.33	 11.67	
    10.55000	    6.000	 98.33	 11.67	
    10.56000	    8.000	100.00	 15.00	
    10.57000	    8.000	100.00	 15.00	
    10.58000	    6.000	 98.33	 11.67	
    10.59000	   10.000	 97.00	 15.00	
    10.60000	    8.000	100.00	 15.00	
    10.61000	    8.000	100.00	 15.00	
    10.62000	   10.000	 97.00	 15.00	
    10.63000	   10.000	 97.00	 15.00	
    10.64000	   10.000	 97.00	 15.00	
    10.65000	   10.000	 97.00	 15.00	
    10.66000	   10.000	 97.00	 15.00	
    10.67000	   10.000	 97.00	 15.00	
    10.68000	   10.000	 97.00	 15.00	
    10.69000	   10.000	 97.00	 15.00	
    10.70000	   10.000	 97.00	 15.00	
    10.71000	   12.000	 96.67	 16.67	
    10.72000	   12.000	 96.67	 16.67	
    10.73000	   12.000	 96.67	 16.67	
    10.74000	   12.000	 96.67	 16.67	
    10.75000	   12.000	 96.67	 16.67	
    10.76000	   12.000	 96.67	 16.67	
    10.77000	   12.000	 96.67	 16.67	
    10.78000	   12.000	 96.67	 16.67	
    10.79000	   12.500	 97.00	 16.60	
    10.80000	   12.000	 96.67	 16.67	
    10.81000	   12.500	 97.00	 16.60	
    10.82000	   12.500	 97.00	 16.60	
    10.83000	   13.000	 96.92	 16.15	
    10.84000	   13.500	 97.22	 16.48	
    10.85000	   13.000	 96.92	 16.54	
    10.86000	   15.500	 95.65	 15.32	
    10.87000	   12.500	 97.00	 16.60	
    10.88000	   14.000	 96.79	 16.79	
    10.89000	   13.500	 97.22	 16.48	
    10.90000	   14.000	 97.14	 16.43	
    10.91000	   13.000	 97.31	 16.92	
    10.92000	   16.000	 95.63	 15.00	
    10.93000	   16.500	 95.30	 15.00	
    10.94000	   16.500	 95.30	 15.00	
    10.95000	   14.000	 97.14	 16.43	
    10.96000	   16.000	 95.63	 15.00	
    10.97000	   16.500	 95.30	 15.00	
    10.98000	   15.500	 95.65	 15.32	
    10.99000	   16.500	 95.30	 15.00	
    11.00000	   16.500	 95.30	 15.00	
    11.01000	   16.500	 95.30	 15.00	
    11.02000	   16.500	 95.30	 15.00	
    11.03000	   16.500	 95.30	 15.00	
    11.04000	   15.500	 95.65	 15.32	
    11.05000	   16.500	 95.30	 15.00	
    11.06000	   16.000	 95.63	 15.00	
    11.07000	   16.000	 95.63	 15.00	
    11.08000	   16.500	 95.30	 15.00	
    11.09000	   16.500	 95.30	 15.00	
    11.10000	   16.500	 95.30	 15.00	
    11.11000	   16.500	 95.30	 15.00	
    11.12000	   16.500	 95.30	 15.00	
    11.13000	   16.500	 95.30	 15.00	
    11.14000	   16.500	 95.30	 15.00	
    11.15000	   16.500	 95.30	 15.00	
    11.16000	   16.500	 95.30	 15.00	
    11.17000	   18.500	 96.35	 13.92	
    11.18000	   16.500	 95.30	 15.00	
    11.19000	   16.500	 95.30	 15.00	
    11.20000	   16.500	 95.30	 15.00	
    11.21000	   16.500	 95.30	 15.00	
    11.22000	   18.500	 96.35	 13.92	
    11.23000	   16.500	 95.30	 15.00	
    11.24000	   16.500	 95.30	 15.00	
    11.25000	   16.500	 95.30	 15.00	
    11.26000	   18.500	 96.35	 13.92	
    11.27000	   18.500	 96.35	 13.92	
    11.28000	   18.500	 96.35	 13.92	
    11.29000	   16.500	 95.30	 15.00	
    11.30000	   16.500	 95.30	 15.00	
    11.31000	   18.500	 96.35	 13.92	
    11.32000	   16.500	 95.30	 15.00	
    11.33000	   18.500	 96.35	 13.92	
    11.34000	   16.500	 95.30	 15.00	
    11.35000	   18.500	 96.35	 13.92	
    11.36000	   18.500	 96.35	 13.92	
    11.37000	   18.500	 96.35	 13.92	
    11.38000	   18.500	 96.35	 13.92	
    11.39000	   18.500	 96.35	 13.92	
    11.40000	   19.000	 96.32	 13.95	
    11.41000	   18.500	 96.35	 13.92	
    11.42000	   18.500	 96.35	 13.92	
    11.43000	   19.000	 96.32	 13.95	
    11.44000	   19.000	 96.32	 13.95	
    11.45000	   18.500	 96.35	 13.92	
    11.46000	   18.500	 96.35	 13.92	
    11.47000	   18.500	 96.35	 13.92	
    11.48000	   19.000	 96.32	 13.95	
    11.49000	   19.000	 96.32	 13.95	
    11.50000	   19.000	 96.32	 13.95	
    11.51000	   19.000	 96.32	 13.95	
    11.52000	   19.000	 96.32	 13.95	
    11.53000	   19.500	 96.28	 14.23	
    11.54000	   20.000	 96.50	 14.50	
    11.55000	   22.000	 96.36	 26.14	
    11.56000	   21.500	 96.40	 26.40	
    11.57000	   22.500	 96.56	 26.11	
    11.58000	   25.000	 96.60	 34.40	
    11.59000	   25.000	 95.60	 38.00	
    11.60000	   27.500	 95.73	 44.45	
    11.61000	   27.000	 95.56	 45.19	
    11.62000	   25.500	 95.78	 37.35	
    11.63000	   27.000	 95.56	 45.19	
    11.64000	   25.000	 95.60	 38.00	
    11.65000	   25.000	 95.60	 38.00	
    11.66000	   25.000	 95.60	 38.00	
    11.67000	   25.000	 95.60	 38.00	
    11.68000	   25.000	 95.60	 38.00	
    11.69000	   26.000	 95.19	 46.15	
    11.70000	   26.000	 95.19	 46.15	
    11.71000	   24.500	 95.61	 38.27	
    11.72000	   25.500	 95.20	 46.57	
    11.73000	   23.500	 95.21	 39.04	
    11.74000	   26.000	 95.19	 46.15	
    11.75000	   24.000	 95.42	 38.75	
    11.76000	   27.500	 93.73	 53.73	
    11.77000	   26.000	 95.38	 46.15	
    11.78000	   26.500	 95.38	 45.75	
    11.79000	   27.000	 95.56	 45.19	
    11.80000	   27.000	 95.56	 45.19	
    11.81000	   29.500	 94.32	 51.27	
    11.82000	   29.500	 93.98	 53.64	
    11.83000	   30.000	 94.17	 52.83	
    11.84000	   30.000	 94.00	 53.00	
    11.85000	   30.500	 94.18	 52.21	
    11.86000	   30.500	 94.18	 52.21	
    11.87000	   30.500	 94.18	 52.21	
    11.88000	   32.500	 93.62	 50.54	
    11.89000	   32.500	 93.62	 50.54	
    11.90000	   30.500	 94.18	 52.21	
    11.91000	   32.500	 93.62	 50.54	
    11.92000	   32.500	 93.62	 50.54	
    11.93000	   30.000	 94.17	 52.83	
    11.94000	   29.500	 94.32	 51.27	
    11.95000	   27.500	 95.36	 47.00	
    11.96000	   29.000	 94.83	 43.79	
    11.97000	   29.500	 93.98	 53.64	
    11.98000	   27.500	 95.36	 47.00	
    11.99000	   27.000	 95.56	 45.19	
    12.00000	   27.500	 95.36	 47.00	
    12.01000	   29.000	 94.14	 52.07	
    12.02000	   29.000	 94.14	 52.07	
    12.03000	   29.000	 94.14	 52.07	
    12.04000	   27.000	 94.07	 45.93	
    12.05000	   27.000	 95.19	 47.59	
    12.06000	   27.000	 95.56	 45.19	
    12.07000	   27.000	 95.56	 45.19	
    12.08000	   27.000	 95.56	 45.19	
    12.09000	   27.000	 95.56	 45.19	
    12.10000	   31.000	 93.55	 50.32	
    12.11000	   29.000	 94.14	 52.07	
    12.12000	   28.000	 95.54	 46.25	
    12.13000	   27.000	 95.56	 45.19	
    12.14000	   31.000	 93.55	 50.32	
    12.15000	   27.000	 95.56	 45.19	
    12.16000	   27.000	 95.56	 45.19	
    12.17000	   25.000	 95.60	 38.00	
    12.18000	   23.500	 95.21	 39.04	
    12.19000	   23.500	 95.21	 39.04	
    12.20000	   23.500	 95.21	 39.04	
    12.21000	   23.500	 95.21	 39.04	
    12.22000	   20.500	 96.22	 26.71	
    12.23000	   20.500	 96.22	 26.71	
    12.24000	   18.500	 95.27	 29.05	
    12.25000	   18.500	 95.27	 29.05	
    12.26000	   18.500	 95.27	 29.05	
    12.27000	   18.500	 95.27	 29.05	
    12.28000	   19.000	 95.26	 32.11	
    12.29000	   27.500	 93.73	 53.73	
    12.30000	   38.000	 93.29	 54.34	
    12.31000	   49.000	 92.76	 58.06	
    12.32000	   70.500	 89.61	 66.56	
    12.33000	   95.000	 87.95	 67.84	
    12.34000	  116.500	 86.76	 71.18	
    12.35000	  124.500	 86.97	 70.30	
    12.36000	  133.500	 85.97	 72.45	
    12.37000	  130.000	 87.27	 70.04	
    12.38000	  129.000	 86.12	 71.51	
    12.39000	  124.000	 86.94	 70.93	
    12.40000	  114.000	 87.28	 70.79	
    12.41000	   98.000	 87.65	 69.18	
    12.42000	   81.500	 88.80	 68.44	
    12.43000	   77.000	 88.96	 68.90	
    12.44000	   67.500	 91.89	 65.30	
    12.45000	   59.500	 90.46	 62.39	
    12.46000	   52.000	 93.65	 61.35	
    12.47000	   49.500	 94.09	 60.96	
    12.48000	   46.500	 93.60	 61.67	
    12.49000	   45.500	 93.57	 62.36	
    12.50000	   43.000	 93.37	 65.00	
    12.51000	   42.500	 93.47	 65.59	
    12.52000	   38.500	 93.31	 66.43	
    12.53000	   36.500	 93.77	 62.67	
    12.54000	   36.000	 93.75	 63.33	
    12.55000	   36.000	 93.75	 63.33	
    12.56000	   33.000	 94.39	 63.18	
    12.57000	   30.000	 93.50	 57.33	
    12.58000	   30.500	 93.69	 56.64	
    12.59000	   28.500	 93.60	 56.93	
    12.60000	   26.000	 92.69	 59.23	
    12.61000	   28.000	 93.57	 55.36	
    12.62000	   26.000	 92.69	 59.23	
    12.63000	   25.500	 92.65	 60.10	
    12.64000	   23.500	 92.45	 53.72	
    12.65000	   25.500	 92.65	 60.10	
    12.66000	   23.500	 92.45	 53.72	
    12.67000	   23.000	 92.61	 54.57	
    12.68000	   23.500	 92.45	 53.72	
    12.69000	   23.500	 92.45	 53.72	
    12.70000	   23.500	 92.45	 53.72	
    12.71000	   26.000	 92.69	 59.23	
    12.72000	   23.500	 92.45	 53.72	
    12.73000	   23.500	 92.45	 53.72	
    12.74000	   24.000	 92.50	 52.92	
    12.75000	   26.000	 93.46	 49.23	
    12.76000	   26.000	 93.46	 49.23	
    12.77000	   24.000	 92.50	 52.92	
    12.78000	   26.000	 93.46	 49.23	
    12.79000	   26.000	 93.46	 49.23	
    12.80000	   28.500	 92.89	 47.11	
    12.81000	   28.500	 92.89	 47.11	
    12.82000	   28.500	 92.89	 47.11	
    12.83000	   29.000	 93.10	 46.72	
    12.84000	   28.500	 92.89	 47.11	
    12.85000	   28.500	 92.89	 47.11	
    12.86000	   26.500	 93.49	 48.77	
    12.87000	   22.500	 94.11	 44.11	
    12.88000	   24.000	 95.21	 38.75	
    12.89000	   22.000	 94.32	 41.82	
    12.90000	   22.000	 94.32	 41.82	
    12.91000	   21.500	 94.30	 42.21	
    12.92000	   21.500	 94.30	 42.21	
    12.93000	   18.500	 95.27	 29.05	
    12.94000	   18.500	 95.27	 29.05	
    12.95000	   19.000	 95.26	 28.68	
    12.96000	   17.000	 95.29	 15.00	
    12.97000	   16.500	 95.30	 15.00	
    12.98000	   16.500	 95.30	 15.00	
    12.99000	   16.500	 95.30	 15.00	
    13.00000	   16.500	 95.30	 15.00	
    13.01000	   15.500	 95.32	 15.00	
    13.02000	   15.000	 95.33	 15.33	
    13.03000	   12.500	 96.60	 16.60	
    13.04000	   14.000	 95.00	 15.00	
    13.05000	   12.000	 96.67	 16.67	
    13.06000	   12.000	 96.67	 16.67	
    13.07000	   12.000	 96.67	 16.67	
    13.08000	   10.000	 97.00	 15.00	
    13.09000	   10.000	 97.00	 15.00	
    13.10000	   10.000	 97.00	 15.00	
    13.11000	   10.000	 97.00	 15.00	
    13.12000	   12.000	 96.67	 16.67	
    13.13000	   10.000	 97.00	 15.00	
    13.14000	   12.000	 96.67	 16.67	
    13.15000	    8.000	 95.00	 15.00	
    13.16000	    6.000	 91.67	 11.67	
    13.17000	    4.000	 95.00	 10.00	
    13.18000	    4.000	 95.00	 10.00	
    13.19000	    4.000	 95.00	 10.00	
    13.20000	    4.000	 95.00	 10.00	
    13.21000	    4.000	 95.00	 10.00	
    13.22000	    4.000	 95.00	 10.00	
    13.23000	    2.000	 95.00	 15.00	
    13.24000	    0.000	  0.00	  0.00	
    13.25000	    0.000	  0.00	  0.00	
    13.26000	    0.000	  0.00	  0.00	
    13.27000	    0.000	  0.00	  0.00	
    13.28000	    0.000	  0.00	  0.00	
    13.29000	    0.000	  0.00	  0.00	
    13.30000	    0.000	  0.00	  0.00	
    13.31000	    0.000	  0.00	  0.00	
    13.32000	    0.000	  0.00	  0.00	
    13.33000	    0.000	  0.00	  0.00	
    13.34000	    0.000	  0.00	  0.00	
    13.35000	    0.000	  0.00	  0.00	
    13.36000	    0.000	  0.00	  0.00	
    13.37000	    0.000	  0.00	  0.00	
    13.38000	    0.000	  0.00	  0.00	
    13.39000	    0.000	  0.00	  0.00	
    13.40000	    0.000	  0.00	  0.00	
    13.41000	    0.000	  0.00	  0.00	
    13.42000	    0.000	  0.00	  0.00	
    13.43000	    0.000	  0.00	  0.00	
    13.44000	    0.000	  0.00	  0.00	
    13.45000	    2.000	 15.00	 75.00	
    13.46000	    2.000	 15.00	 75.00	
    13.47000	    2.000	 15.00	 75.00	
    13.48000	    2.000	 15.00	 75.00	
    13.49000	    2.000	 15.00	 75.00	
    13.50000	    2.000	 15.00	 75.00	
    13.51000	    0.000	  0.00	  0.00	
    13.52000	    0.000	  0.00	  0.00	
    13.53000	    0.000	  0.00	  0.00	
    13.54000	    0.000	  0.00	  0.00	
    13.55000	    0.000	  0.00	  0.00	
    13.56000	    0.000	  0.00	  0.00	
    13.57000	    0.000	  0.00	  0.00	
    13.58000	    0.000	  0.00	  0.00	
    13.59000	    0.000	  0.00	  0.00	
    13.60000	    0.000	  0.00	  0.00	
    13.61000	    0.000	  0.00	  0.00	
    13.62000	    0.000	  0.00	  0.00	
    13.63000	    0.000	  0.00	  0.00	
    13.64000	    0.000	  0.00	  0.00	
    13.65000	    0.000	  0.00	  0.00	
    13.66000	    0.000	  0.00	  0.00	
    13.67000	    0.000	  0.00	  0.00	
    13.68000	    0.000	  0.00	  0.00	
    13.69000	    0.000	  0.00	  0.00	
    13.70000	    0.000	  0.00	  0.00	
    13.71000	    0.000	  0.00	  0.00	
    13.72000	    0.000	  0.00	  0.00	
    13.73000	    0.000	  0.00	  0.00	
    13.74000	    0.000	  0.00	  0.00	
    13.75000	    0.000	  0.00	  0.00	
    13.76000	    0.000	  0.00	  0.00	
    13.77000	    0.000	  0.00	  0.00	
    13.78000	    0.000	  0.00	  0.00	
    13.79000	    0.000	  0.00	  0.00	
    13.80000	    0.000	  0.00	  0.00	
    13.81000	    0.000	  0.00	  0.00	
    13.82000	    0.000	  0.00	  0.00	
    13.83000	    0.000	  0.00	  0.00	
    13.84000	    0.000	  0.00	  0.00	
    13.85000	    0.000	  0.00	  0.00	
    13.86000	    0.000	  0.00	  0.00	
    13.87000	    0.000	  0.00	  0.00	
    13.88000	    0.000	  0.00	  0.00	
    13.89000	    0.000	  0.00	  0.00	
    13.90000	    0.000	  0.00	  0.00	
    13.91000	    0.000	  0.00	  0.00	
    13.92000	    0.000	  0.00	  0.00	
    13.93000	    0.000	  0.00	  0.00	
    13.94000	    0.000	  0.00	  0.00	
    13.95000	    0.000	  0.00	  0.00	
    13.96000	    0.000	  0.00	  0.00	
    13.97000	    0.000	  0.00	  0.00	
    13.98000	    0.000	  0.00	  0.00	
    13.99000	    0.000	  0.00	  0.00	
    14.00000	    0.000	  0.00	  0.00	
    14.01000	    0.000	  0.00	  0.00	
    14.02000	    0.000	  0.00	  0.00	
    14.03000	    0.000	  0.00	  0.00	
    14.04000	    0.000	  0.00	  0.00	
    14.05000	    0.000	  0.00	  0.00	
    14.06000	    0.000	  0.00	  0.00	
    14.07000	    0.000	  0.00	  0.00	
    14.08000	    0.000	  0.00	  0.00	
    14.09000	    0.000	  0.00	  0.00	
    14.10000	    0.000	  0.00	  0.00	
    14.11000	    0.000	  0.00	  0.00	
    14.12000	    0.000	  0.00	  0.00	
    14.13000	    0.000	  0.00	  0.00	
    14.14000	    0.000	  0.00	  0.00	
    14.15000	    0.000	  0.00	  0.00	
    14.16000	    0.000	  0.00	  0.00	
    14.17000	    0.000	  0.00	  0.00	
    14.18000	    0.000	  0.00	  0.00	
    14.19000	    0.000	  0.00	  0.00	
    14.20000	    0.000	  0.00	  0.00	
    14.21000	    0.000	  0.00	  0.00	
    14.22000	    0.000	  0.00	  0.00	
    14.23000	    0.000	  0.00	  0.00	
    14.24000	    0.000	  0.00	  0.00	
    14.25000	    0.000	  0.00	  0.00	
    14.26000	    0.000	  0.00	  0.00	
    14.27000	    0.000	  0.00	  0.00	
    14.28000	    0.000	  0.00	  0.00	
    14.29000	    0.000	  0.00	  0.00	
    14.30000	    0.000	  0.00	  0.00	
    14.31000	    0.000	  0.00	  0.00	
    14.32000	    0.000	  0.00	  0.00	
    14.33000	    0.000	  0.00	  0.00	
    14.34000	    0.000	  0.00	  0.00	
    14.35000	    0.000	  0.00	  0.00	
    14.36000	    0.000	  0.00	  0.00	
    14.37000	    0.000	  0.00	  0.00	
    14.38000	    0.000	  0.00	  0.00	
    14.39000	    0.000	  0.00	  0.00	
    14.40000	    0.000	  0.00	  0.00	
    14.41000	    0.000	  0.00	  0.00	
    14.42000	    0.000	  0.00	  0.00	
    14.43000	    0.000	  0.00	  0.00	
    14.44000	    0.000	  0.00	  0.00	
    14.45000	    0.000	  0.00	  0.00	
    14.46000	    0.000	  0.00	  0.00	
    14.47000	    0.000	  0.00	  0.00	
    14.48000	    0.000	  0.00	  0.00	
    14.49000	    0.000	  0.00	  0.00	
    14.50000	    0.000	  0.00	  0.00	
    14.51000	    0.000	  0.00	  0.00	
    14.52000	    0.000	  0.00	  0.00	
    14.53000	    0.000	  0.00	  0.00	
    14.54000	    0.000	  0.00	  0.00	
    14.55000	    0.000	  0.00	  0.00	
    14.56000	    0.000	  0.00	  0.00	
    14.57000	    0.000	  0.00	  0.00	
    14.58000	    0.000	  0.00	  0.00	
    14.59000	    0.000	  0.00	  0.00	
    14.60000	    0.000	  0.00	  0.00	
    14.61000	    0.000	  0.00	  0.00	
    14.62000	    0.000	  0.00	  0.00	
    14.63000	    0.000	  0.00	  0.00	
    14.64000	    0.000	  0.00	  0.00	
    14.65000	    0.000	  0.00	  0.00	
    14.66000	    0.000	  0.00	  0.00	
