file name:  S2128_09_1_2_MPa_PXF440_220809_295.mat	date/time  03.09.22 13.04
sensor type:  s2128_09_1_2_mpa_pxf440_220809 
force time integral[N*s]:       490.560
pressure time integral [kPa*s]:      497.300
total time [secs]:  17.630	time per frame [secs]:  0.01000	scanning rate [Hz]:   100


time[secs]    	force[N]   	x[mm]     	y[mm] 	

     0.01000	    0.000	  0.00	  0.00	
     0.02000	    0.000	  0.00	  0.00	
     0.03000	    0.000	  0.00	  0.00	
     0.04000	    0.000	  0.00	  0.00	
     0.05000	    0.000	  0.00	  0.00	
     0.06000	    0.000	  0.00	  0.00	
     0.07000	    0.000	  0.00	  0.00	
     0.08000	    0.000	  0.00	  0.00	
     0.09000	    0.000	  0.00	  0.00	
     0.10000	    0.000	  0.00	  0.00	
     0.11000	    0.000	  0.00	  0.00	
     0.12000	    0.000	  0.00	  0.00	
     0.13000	    0.000	  0.00	  0.00	
     0.14000	    0.000	  0.00	  0.00	
     0.15000	    0.000	  0.00	  0.00	
     0.16000	    0.000	  0.00	  0.00	
     0.17000	    0.000	  0.00	  0.00	
     0.18000	    0.000	  0.00	  0.00	
     0.19000	    0.000	  0.00	  0.00	
     0.20000	    0.000	  0.00	  0.00	
     0.21000	    0.000	  0.00	  0.00	
     0.22000	    0.000	  0.00	  0.00	
     0.23000	    0.000	  0.00	  0.00	
     0.24000	    0.000	  0.00	  0.00	
     0.25000	    0.000	  0.00	  0.00	
     0.26000	    0.000	  0.00	  0.00	
     0.27000	    0.000	  0.00	  0.00	
     0.28000	    0.000	  0.00	  0.00	
     0.29000	    0.000	  0.00	  0.00	
     0.30000	    0.000	  0.00	  0.00	
     0.31000	    0.000	  0.00	  0.00	
     0.32000	    0.000	  0.00	  0.00	
     0.33000	    0.000	  0.00	  0.00	
     0.34000	    0.000	  0.00	  0.00	
     0.35000	    0.000	  0.00	  0.00	
     0.36000	    0.000	  0.00	  0.00	
     0.37000	    0.000	  0.00	  0.00	
     0.38000	    0.000	  0.00	  0.00	
     0.39000	    0.000	  0.00	  0.00	
     0.40000	    0.000	  0.00	  0.00	
     0.41000	    0.000	  0.00	  0.00	
     0.42000	    0.000	  0.00	  0.00	
     0.43000	    0.000	  0.00	  0.00	
     0.44000	    0.000	  0.00	  0.00	
     0.45000	    0.000	  0.00	  0.00	
     0.46000	    0.000	  0.00	  0.00	
     0.47000	    0.000	  0.00	  0.00	
     0.48000	    0.000	  0.00	  0.00	
     0.49000	    0.000	  0.00	  0.00	
     0.50000	    0.000	  0.00	  0.00	
     0.51000	    0.000	  0.00	  0.00	
     0.52000	    0.000	  0.00	  0.00	
     0.53000	    0.000	  0.00	  0.00	
     0.54000	    0.000	  0.00	  0.00	
     0.55000	    0.000	  0.00	  0.00	
     0.56000	    0.000	  0.00	  0.00	
     0.57000	    0.000	  0.00	  0.00	
     0.58000	    0.000	  0.00	  0.00	
     0.59000	    0.000	  0.00	  0.00	
     0.60000	    0.000	  0.00	  0.00	
     0.61000	    0.000	  0.00	  0.00	
     0.62000	    0.000	  0.00	  0.00	
     0.63000	    0.000	  0.00	  0.00	
     0.64000	    0.000	  0.00	  0.00	
     0.65000	    0.000	  0.00	  0.00	
     0.66000	    0.000	  0.00	  0.00	
     0.67000	    0.000	  0.00	  0.00	
     0.68000	    0.000	  0.00	  0.00	
     0.69000	    0.000	  0.00	  0.00	
     0.70000	    0.000	  0.00	  0.00	
     0.71000	    0.000	  0.00	  0.00	
     0.72000	    0.000	  0.00	  0.00	
     0.73000	    0.000	  0.00	  0.00	
     0.74000	    0.000	  0.00	  0.00	
     0.75000	    0.000	  0.00	  0.00	
     0.76000	    0.000	  0.00	  0.00	
     0.77000	    0.000	  0.00	  0.00	
     0.78000	    0.000	  0.00	  0.00	
     0.79000	    0.000	  0.00	  0.00	
     0.80000	    0.000	  0.00	  0.00	
     0.81000	    0.000	  0.00	  0.00	
     0.82000	    0.000	  0.00	  0.00	
     0.83000	    0.000	  0.00	  0.00	
     0.84000	    0.000	  0.00	  0.00	
     0.85000	    0.000	  0.00	  0.00	
     0.86000	    0.000	  0.00	  0.00	
     0.87000	    0.000	  0.00	  0.00	
     0.88000	    0.000	  0.00	  0.00	
     0.89000	    0.000	  0.00	  0.00	
     0.90000	    0.000	  0.00	  0.00	
     0.91000	    0.000	  0.00	  0.00	
     0.92000	    0.000	  0.00	  0.00	
     0.93000	    0.000	  0.00	  0.00	
     0.94000	    0.000	  0.00	  0.00	
     0.95000	    0.000	  0.00	  0.00	
     0.96000	    0.000	  0.00	  0.00	
     0.97000	    0.000	  0.00	  0.00	
     0.98000	    0.000	  0.00	  0.00	
     0.99000	    0.000	  0.00	  0.00	
     1.00000	    0.000	  0.00	  0.00	
     1.01000	    0.000	  0.00	  0.00	
     1.02000	    0.000	  0.00	  0.00	
     1.03000	    0.000	  0.00	  0.00	
     1.04000	    0.000	  0.00	  0.00	
     1.05000	    0.000	  0.00	  0.00	
     1.06000	    0.000	  0.00	  0.00	
     1.07000	    0.000	  0.00	  0.00	
     1.08000	    0.000	  0.00	  0.00	
     1.09000	    0.000	  0.00	  0.00	
     1.10000	    0.000	  0.00	  0.00	
     1.11000	    0.000	  0.00	  0.00	
     1.12000	    0.000	  0.00	  0.00	
     1.13000	    0.000	  0.00	  0.00	
     1.14000	    0.000	  0.00	  0.00	
     1.15000	    0.000	  0.00	  0.00	
     1.16000	    0.000	  0.00	  0.00	
     1.17000	    0.000	  0.00	  0.00	
     1.18000	    0.000	  0.00	  0.00	
     1.19000	    0.000	  0.00	  0.00	
     1.20000	    0.000	  0.00	  0.00	
     1.21000	    0.000	  0.00	  0.00	
     1.22000	    0.000	  0.00	  0.00	
     1.23000	    0.000	  0.00	  0.00	
     1.24000	    0.000	  0.00	  0.00	
     1.25000	    0.000	  0.00	  0.00	
     1.26000	    0.000	  0.00	  0.00	
     1.27000	    0.000	  0.00	  0.00	
     1.28000	    0.000	  0.00	  0.00	
     1.29000	    0.000	  0.00	  0.00	
     1.30000	    0.000	  0.00	  0.00	
     1.31000	    0.000	  0.00	  0.00	
     1.32000	    0.000	  0.00	  0.00	
     1.33000	    0.000	  0.00	  0.00	
     1.34000	    0.000	  0.00	  0.00	
     1.35000	    0.000	  0.00	  0.00	
     1.36000	    0.000	  0.00	  0.00	
     1.37000	    0.000	  0.00	  0.00	
     1.38000	    0.000	  0.00	  0.00	
     1.39000	    0.000	  0.00	  0.00	
     1.40000	    0.000	  0.00	  0.00	
     1.41000	    0.000	  0.00	  0.00	
     1.42000	    0.000	  0.00	  0.00	
     1.43000	    0.000	  0.00	  0.00	
     1.44000	    0.000	  0.00	  0.00	
     1.45000	    0.000	  0.00	  0.00	
     1.46000	    0.000	  0.00	  0.00	
     1.47000	    0.000	  0.00	  0.00	
     1.48000	    0.000	  0.00	  0.00	
     1.49000	    0.000	  0.00	  0.00	
     1.50000	    0.000	  0.00	  0.00	
     1.51000	    0.000	  0.00	  0.00	
     1.52000	    0.000	  0.00	  0.00	
     1.53000	    0.000	  0.00	  0.00	
     1.54000	    0.000	  0.00	  0.00	
     1.55000	    0.000	  0.00	  0.00	
     1.56000	    0.000	  0.00	  0.00	
     1.57000	    0.000	  0.00	  0.00	
     1.58000	    0.000	  0.00	  0.00	
     1.59000	    0.000	  0.00	  0.00	
     1.60000	    0.000	  0.00	  0.00	
     1.61000	    0.000	  0.00	  0.00	
     1.62000	    0.000	  0.00	  0.00	
     1.63000	    0.000	  0.00	  0.00	
     1.64000	    0.000	  0.00	  0.00	
     1.65000	    0.000	  0.00	  0.00	
     1.66000	    0.000	  0.00	  0.00	
     1.67000	    0.000	  0.00	  0.00	
     1.68000	    0.000	  0.00	  0.00	
     1.69000	    0.000	  0.00	  0.00	
     1.70000	    0.000	  0.00	  0.00	
     1.71000	    0.000	  0.00	  0.00	
     1.72000	    0.000	  0.00	  0.00	
     1.73000	    0.000	  0.00	  0.00	
     1.74000	    0.000	  0.00	  0.00	
     1.75000	    0.000	  0.00	  0.00	
     1.76000	    0.000	  0.00	  0.00	
     1.77000	    0.000	  0.00	  0.00	
     1.78000	    0.000	  0.00	  0.00	
     1.79000	    0.000	  0.00	  0.00	
     1.80000	    0.000	  0.00	  0.00	
     1.81000	    0.000	  0.00	  0.00	
     1.82000	    0.000	  0.00	  0.00	
     1.83000	    0.000	  0.00	  0.00	
     1.84000	    0.000	  0.00	  0.00	
     1.85000	    0.000	  0.00	  0.00	
     1.86000	    0.000	  0.00	  0.00	
     1.87000	    0.000	  0.00	  0.00	
     1.88000	    0.000	  0.00	  0.00	
     1.89000	    0.000	  0.00	  0.00	
     1.90000	    0.000	  0.00	  0.00	
     1.91000	    0.000	  0.00	  0.00	
     1.92000	    0.000	  0.00	  0.00	
     1.93000	    0.000	  0.00	  0.00	
     1.94000	    0.000	  0.00	  0.00	
     1.95000	    0.000	  0.00	  0.00	
     1.96000	    0.000	  0.00	  0.00	
     1.97000	    0.000	  0.00	  0.00	
     1.98000	    0.000	  0.00	  0.00	
     1.99000	    0.000	  0.00	  0.00	
     2.00000	    0.000	  0.00	  0.00	
     2.01000	    0.000	  0.00	  0.00	
     2.02000	    0.000	  0.00	  0.00	
     2.03000	    0.000	  0.00	  0.00	
     2.04000	    0.000	  0.00	  0.00	
     2.05000	    0.000	  0.00	  0.00	
     2.06000	    0.000	  0.00	  0.00	
     2.07000	    0.000	  0.00	  0.00	
     2.08000	    0.000	  0.00	  0.00	
     2.09000	    0.000	  0.00	  0.00	
     2.10000	    0.000	  0.00	  0.00	
     2.11000	    0.000	  0.00	  0.00	
     2.12000	    0.000	  0.00	  0.00	
     2.13000	    0.000	  0.00	  0.00	
     2.14000	    0.000	  0.00	  0.00	
     2.15000	    0.000	  0.00	  0.00	
     2.16000	    0.000	  0.00	  0.00	
     2.17000	    0.000	  0.00	  0.00	
     2.18000	    0.000	  0.00	  0.00	
     2.19000	    0.000	  0.00	  0.00	
     2.20000	    0.000	  0.00	  0.00	
     2.21000	    0.000	  0.00	  0.00	
     2.22000	    0.000	  0.00	  0.00	
     2.23000	    0.000	  0.00	  0.00	
     2.24000	    0.000	  0.00	  0.00	
     2.25000	    0.000	  0.00	  0.00	
     2.26000	    0.000	  0.00	  0.00	
     2.27000	    0.000	  0.00	  0.00	
     2.28000	    0.000	  0.00	  0.00	
     2.29000	    0.000	  0.00	  0.00	
     2.30000	    0.000	  0.00	  0.00	
     2.31000	    0.000	  0.00	  0.00	
     2.32000	    0.000	  0.00	  0.00	
     2.33000	    0.000	  0.00	  0.00	
     2.34000	    0.000	  0.00	  0.00	
     2.35000	    0.000	  0.00	  0.00	
     2.36000	    0.000	  0.00	  0.00	
     2.37000	    0.000	  0.00	  0.00	
     2.38000	    0.000	  0.00	  0.00	
     2.39000	    0.000	  0.00	  0.00	
     2.40000	    0.000	  0.00	  0.00	
     2.41000	    0.000	  0.00	  0.00	
     2.42000	    0.000	  0.00	  0.00	
     2.43000	    0.000	  0.00	  0.00	
     2.44000	    0.000	  0.00	  0.00	
     2.45000	    0.000	  0.00	  0.00	
     2.46000	    0.000	  0.00	  0.00	
     2.47000	    0.000	  0.00	  0.00	
     2.48000	    0.000	  0.00	  0.00	
     2.49000	    0.000	  0.00	  0.00	
     2.50000	    0.000	  0.00	  0.00	
     2.51000	    0.000	  0.00	  0.00	
     2.52000	    0.000	  0.00	  0.00	
     2.53000	    0.000	  0.00	  0.00	
     2.54000	    0.000	  0.00	  0.00	
     2.55000	    0.000	  0.00	  0.00	
     2.56000	    0.000	  0.00	  0.00	
     2.57000	    0.000	  0.00	  0.00	
     2.58000	    0.000	  0.00	  0.00	
     2.59000	    0.000	  0.00	  0.00	
     2.60000	    0.000	  0.00	  0.00	
     2.61000	    0.000	  0.00	  0.00	
     2.62000	    0.000	  0.00	  0.00	
     2.63000	    0.000	  0.00	  0.00	
     2.64000	    0.000	  0.00	  0.00	
     2.65000	    0.000	  0.00	  0.00	
     2.66000	    0.000	  0.00	  0.00	
     2.67000	    0.000	  0.00	  0.00	
     2.68000	    0.000	  0.00	  0.00	
     2.69000	    0.000	  0.00	  0.00	
     2.70000	    0.000	  0.00	  0.00	
     2.71000	    0.000	  0.00	  0.00	
     2.72000	    0.000	  0.00	  0.00	
     2.73000	    0.000	  0.00	  0.00	
     2.74000	    0.000	  0.00	  0.00	
     2.75000	    0.000	  0.00	  0.00	
     2.76000	    0.000	  0.00	  0.00	
     2.77000	    0.000	  0.00	  0.00	
     2.78000	    0.000	  0.00	  0.00	
     2.79000	    0.000	  0.00	  0.00	
     2.80000	    0.000	  0.00	  0.00	
     2.81000	    0.000	  0.00	  0.00	
     2.82000	    0.000	  0.00	  0.00	
     2.83000	    0.000	  0.00	  0.00	
     2.84000	    0.000	  0.00	  0.00	
     2.85000	    0.000	  0.00	  0.00	
     2.86000	    0.000	  0.00	  0.00	
     2.87000	    0.000	  0.00	  0.00	
     2.88000	    0.000	  0.00	  0.00	
     2.89000	    0.000	  0.00	  0.00	
     2.90000	    0.000	  0.00	  0.00	
     2.91000	    0.000	  0.00	  0.00	
     2.92000	    0.000	  0.00	  0.00	
     2.93000	    0.000	  0.00	  0.00	
     2.94000	    0.000	  0.00	  0.00	
     2.95000	    0.000	  0.00	  0.00	
     2.96000	    0.000	  0.00	  0.00	
     2.97000	    0.000	  0.00	  0.00	
     2.98000	    0.000	  0.00	  0.00	
     2.99000	    0.000	  0.00	  0.00	
     3.00000	    0.000	  0.00	  0.00	
     3.01000	    0.000	  0.00	  0.00	
     3.02000	    0.000	  0.00	  0.00	
     3.03000	    0.000	  0.00	  0.00	
     3.04000	    0.000	  0.00	  0.00	
     3.05000	    0.000	  0.00	  0.00	
     3.06000	    0.000	  0.00	  0.00	
     3.07000	    0.000	  0.00	  0.00	
     3.08000	    0.000	  0.00	  0.00	
     3.09000	    0.000	  0.00	  0.00	
     3.10000	    0.000	  0.00	  0.00	
     3.11000	    0.000	  0.00	  0.00	
     3.12000	    0.000	  0.00	  0.00	
     3.13000	    0.000	  0.00	  0.00	
     3.14000	    0.000	  0.00	  0.00	
     3.15000	    0.000	  0.00	  0.00	
     3.16000	    0.000	  0.00	  0.00	
     3.17000	    0.000	  0.00	  0.00	
     3.18000	    0.000	  0.00	  0.00	
     3.19000	    0.000	  0.00	  0.00	
     3.20000	    0.000	  0.00	  0.00	
     3.21000	    0.000	  0.00	  0.00	
     3.22000	    0.000	  0.00	  0.00	
     3.23000	    0.000	  0.00	  0.00	
     3.24000	    0.000	  0.00	  0.00	
     3.25000	    0.000	  0.00	  0.00	
     3.26000	    0.000	  0.00	  0.00	
     3.27000	    0.000	  0.00	  0.00	
     3.28000	    0.000	  0.00	  0.00	
     3.29000	    0.000	  0.00	  0.00	
     3.30000	    0.000	  0.00	  0.00	
     3.31000	    0.000	  0.00	  0.00	
     3.32000	    0.000	  0.00	  0.00	
     3.33000	    0.000	  0.00	  0.00	
     3.34000	    0.000	  0.00	  0.00	
     3.35000	    0.000	  0.00	  0.00	
     3.36000	    0.000	  0.00	  0.00	
     3.37000	    0.000	  0.00	  0.00	
     3.38000	    0.000	  0.00	  0.00	
     3.39000	    0.000	  0.00	  0.00	
     3.40000	    0.000	  0.00	  0.00	
     3.41000	    2.000	 35.00	 75.00	
     3.42000	    2.000	 35.00	 75.00	
     3.43000	    2.500	 35.00	 75.00	
     3.44000	    2.500	 35.00	 75.00	
     3.45000	    2.500	 35.00	 75.00	
     3.46000	    2.500	 35.00	 75.00	
     3.47000	    3.000	 35.00	 75.00	
     3.48000	    3.000	 35.00	 75.00	
     3.49000	    3.000	 35.00	 75.00	
     3.50000	    3.000	 35.00	 75.00	
     3.51000	    3.000	 35.00	 75.00	
     3.52000	    3.000	 35.00	 75.00	
     3.53000	    3.000	 35.00	 75.00	
     3.54000	    5.000	 39.00	 75.00	
     3.55000	    7.000	 37.86	 72.14	
     3.56000	    7.000	 37.86	 72.14	
     3.57000	    9.000	 39.44	 70.56	
     3.58000	    5.000	 39.00	 75.00	
     3.59000	    5.000	 39.00	 75.00	
     3.60000	    3.000	 35.00	 75.00	
     3.61000	    3.000	 35.00	 75.00	
     3.62000	    2.500	 35.00	 75.00	
     3.63000	    2.500	 35.00	 75.00	
     3.64000	    2.500	 35.00	 75.00	
     3.65000	    2.000	 35.00	 75.00	
     3.66000	    0.000	  0.00	  0.00	
     3.67000	    0.000	  0.00	  0.00	
     3.68000	    0.000	  0.00	  0.00	
     3.69000	    0.000	  0.00	  0.00	
     3.70000	    0.000	  0.00	  0.00	
     3.71000	    0.000	  0.00	  0.00	
     3.72000	    0.000	  0.00	  0.00	
     3.73000	    0.000	  0.00	  0.00	
     3.74000	    0.000	  0.00	  0.00	
     3.75000	    0.000	  0.00	  0.00	
     3.76000	    0.000	  0.00	  0.00	
     3.77000	    0.000	  0.00	  0.00	
     3.78000	    0.000	  0.00	  0.00	
     3.79000	    0.000	  0.00	  0.00	
     3.80000	    0.000	  0.00	  0.00	
     3.81000	    0.000	  0.00	  0.00	
     3.82000	    0.000	  0.00	  0.00	
     3.83000	    0.000	  0.00	  0.00	
     3.84000	    0.000	  0.00	  0.00	
     3.85000	    0.000	  0.00	  0.00	
     3.86000	    0.000	  0.00	  0.00	
     3.87000	    0.000	  0.00	  0.00	
     3.88000	    0.000	  0.00	  0.00	
     3.89000	    0.000	  0.00	  0.00	
     3.90000	    0.000	  0.00	  0.00	
     3.91000	    4.000	 25.00	 90.00	
     3.92000	    6.000	 28.33	 91.67	
     3.93000	    6.000	 28.33	 91.67	
     3.94000	    8.000	 30.00	 85.00	
     3.95000	    8.500	 30.29	 83.82	
     3.96000	   10.500	 33.10	 78.33	
     3.97000	    9.500	 33.42	 72.89	
     3.98000	    9.500	 35.53	 64.47	
     3.99000	   10.500	 35.48	 65.00	
     4.00000	   10.500	 35.48	 65.00	
     4.01000	   11.000	 35.45	 65.00	
     4.02000	   11.500	 35.43	 64.57	
     4.03000	   14.000	 35.00	 69.64	
     4.04000	   12.000	 35.00	 65.42	
     4.05000	   14.500	 34.66	 70.17	
     4.06000	   12.500	 34.60	 66.20	
     4.07000	   13.000	 34.62	 66.15	
     4.08000	   15.000	 36.33	 65.67	
     4.09000	   14.500	 33.28	 70.17	
     4.10000	   14.000	 33.21	 70.71	
     4.11000	   16.000	 33.44	 73.75	
     4.12000	   13.500	 33.15	 70.93	
     4.13000	   12.500	 32.20	 78.60	
     4.14000	   13.000	 31.92	 79.23	
     4.15000	   10.000	 29.50	 84.00	
     4.16000	   10.000	 29.00	 85.50	
     4.17000	    8.000	 27.50	 83.13	
     4.18000	    6.500	 25.00	 89.62	
     4.19000	    6.500	 25.00	 89.62	
     4.20000	    6.000	 25.00	 89.17	
     4.21000	    6.000	 25.00	 89.17	
     4.22000	    8.000	 27.50	 90.63	
     4.23000	    8.000	 27.50	 90.63	
     4.24000	    6.000	 25.00	 89.17	
     4.25000	    8.000	 27.50	 90.63	
     4.26000	    8.000	 27.50	 90.63	
     4.27000	    8.000	 27.50	 90.63	
     4.28000	    8.000	 27.50	 90.63	
     4.29000	    6.500	 25.00	 88.85	
     4.30000	    8.000	 27.50	 90.63	
     4.31000	    6.500	 25.00	 88.85	
     4.32000	    8.500	 27.35	 90.29	
     4.33000	    6.000	 25.00	 88.33	
     4.34000	    6.000	 25.00	 88.33	
     4.35000	    4.000	 25.00	 85.00	
     4.36000	    3.500	 25.00	 85.00	
     4.37000	    3.500	 25.00	 85.00	
     4.38000	    3.500	 25.00	 85.00	
     4.39000	    5.000	 29.00	 77.00	
     4.40000	    4.500	 29.44	 76.11	
     4.41000	    6.500	 35.00	 68.08	
     4.42000	    5.000	 40.00	 60.00	
     4.43000	    7.500	 38.33	 59.00	
     4.44000	    7.500	 38.33	 59.00	
     4.45000	   10.500	 39.76	 59.76	
     4.46000	   11.000	 39.55	 60.00	
     4.47000	   11.500	 39.78	 60.22	
     4.48000	   12.000	 39.58	 60.42	
     4.49000	   12.000	 39.58	 60.42	
     4.50000	   12.000	 39.58	 60.42	
     4.51000	   12.500	 39.80	 60.60	
     4.52000	   13.500	 39.81	 60.19	
     4.53000	   13.000	 40.00	 60.38	
     4.54000	   13.000	 40.00	 60.38	
     4.55000	   13.000	 40.00	 60.38	
     4.56000	   13.000	 40.00	 60.38	
     4.57000	   13.000	 40.00	 60.38	
     4.58000	   13.500	 40.19	 60.19	
     4.59000	   13.000	 40.00	 60.38	
     4.60000	   13.000	 40.00	 60.38	
     4.61000	   13.000	 40.00	 60.38	
     4.62000	   15.000	 40.67	 65.00	
     4.63000	   14.000	 40.71	 65.71	
     4.64000	   14.500	 40.86	 66.72	
     4.65000	   14.500	 40.86	 66.72	
     4.66000	   12.000	 41.67	 68.75	
     4.67000	   11.500	 41.96	 70.65	
     4.68000	   10.500	 41.67	 71.67	
     4.69000	   10.500	 41.67	 71.67	
     4.70000	    8.500	 40.88	 75.59	
     4.71000	    8.000	 41.25	 76.25	
     4.72000	    6.000	 40.00	 80.00	
     4.73000	    6.500	 40.38	 81.15	
     4.74000	    6.500	 40.38	 81.15	
     4.75000	    6.500	 40.38	 81.15	
     4.76000	    6.000	 40.83	 82.50	
     4.77000	    6.000	 41.67	 85.00	
     4.78000	    4.000	 45.00	 95.00	
     4.79000	    4.000	 45.00	 95.00	
     4.80000	    4.500	 45.00	 95.00	
     4.81000	    5.000	 45.00	 95.00	
     4.82000	    5.000	 45.00	 95.00	
     4.83000	    5.000	 45.00	 95.00	
     4.84000	    5.000	 45.00	 95.00	
     4.85000	    5.000	 45.00	 95.00	
     4.86000	    5.000	 45.00	 95.00	
     4.87000	    5.000	 45.00	 95.00	
     4.88000	    5.000	 45.00	 95.00	
     4.89000	    5.500	 45.00	 95.00	
     4.90000	    5.500	 45.00	 95.00	
     4.91000	    5.000	 45.00	 95.00	
     4.92000	    7.000	 42.14	 89.29	
     4.93000	    7.500	 41.67	 88.33	
     4.94000	   10.000	 38.00	 85.00	
     4.95000	   12.000	 37.08	 80.83	
     4.96000	   13.000	 36.15	 79.23	
     4.97000	   14.000	 36.07	 78.57	
     4.98000	   14.500	 35.34	 77.76	
     4.99000	   14.000	 35.00	 77.14	
     5.00000	   14.000	 34.29	 76.43	
     5.01000	   15.000	 34.33	 76.00	
     5.02000	   14.500	 34.31	 75.34	
     5.03000	   15.000	 34.33	 75.00	
     5.04000	   15.000	 34.67	 75.00	
     5.05000	   12.000	 33.33	 71.67	
     5.06000	   13.500	 35.00	 75.00	
     5.07000	   13.000	 35.00	 75.00	
     5.08000	   13.500	 35.37	 75.74	
     5.09000	   10.000	 37.50	 76.50	
     5.10000	    9.000	 37.78	 77.22	
     5.11000	    8.500	 37.94	 77.35	
     5.12000	    7.000	 38.57	 79.29	
     5.13000	    4.500	 40.56	 86.11	
     5.14000	    2.500	 45.00	 95.00	
     5.15000	    4.500	 36.11	 55.00	
     5.16000	    4.500	 36.11	 55.00	
     5.17000	    4.500	 36.11	 55.00	
     5.18000	    7.500	 33.00	 49.00	
     5.19000	    5.000	 35.00	 50.00	
     5.20000	    4.500	 36.11	 55.00	
     5.21000	    4.500	 36.11	 55.00	
     5.22000	    4.500	 36.11	 55.00	
     5.23000	    4.500	 36.11	 55.00	
     5.24000	    6.000	 31.67	 45.00	
     5.25000	    4.500	 33.89	 61.67	
     5.26000	    2.000	 25.00	 35.00	
     5.27000	    2.000	 25.00	 35.00	
     5.28000	    2.000	 35.00	 85.00	
     5.29000	    2.500	 35.00	 85.00	
     5.30000	    5.000	 35.00	 81.00	
     5.31000	    6.500	 35.00	 81.15	
     5.32000	    9.000	 37.22	 82.22	
     5.33000	   10.000	 37.00	 82.00	
     5.34000	   10.500	 37.38	 82.14	
     5.35000	   11.500	 37.17	 81.96	
     5.36000	   11.500	 37.17	 81.96	
     5.37000	   12.500	 37.00	 81.80	
     5.38000	   12.500	 37.00	 81.80	
     5.39000	   13.000	 36.92	 81.92	
     5.40000	   13.000	 36.92	 81.92	
     5.41000	   13.000	 36.92	 81.92	
     5.42000	   13.500	 36.85	 81.67	
     5.43000	   14.000	 36.79	 81.79	
     5.44000	   13.500	 36.85	 81.67	
     5.45000	   16.500	 38.03	 80.76	
     5.46000	   16.000	 37.81	 80.63	
     5.47000	   14.000	 36.79	 81.43	
     5.48000	   15.500	 37.90	 80.48	
     5.49000	   15.500	 37.90	 80.48	
     5.50000	   16.000	 37.81	 80.63	
     5.51000	   15.500	 37.90	 80.48	
     5.52000	   13.000	 36.92	 81.54	
     5.53000	   12.500	 37.00	 81.40	
     5.54000	   11.500	 36.74	 81.52	
     5.55000	   11.000	 36.82	 81.36	
     5.56000	    8.000	 35.00	 80.63	
     5.57000	    7.000	 35.00	 80.71	
     5.58000	    7.500	 27.00	 84.33	
     5.59000	    7.000	 26.43	 84.29	
     5.60000	    4.000	 15.00	 50.00	
     5.61000	    2.000	 25.00	  5.00	
     5.62000	    4.000	 45.00	 50.00	
     5.63000	    6.000	 31.67	 65.00	
     5.64000	    4.000	 35.00	 95.00	
     5.65000	    4.000	 35.00	 95.00	
     5.66000	    2.000	 65.00	 95.00	
     5.67000	    4.000	 60.00	 95.00	
     5.68000	    4.000	 60.00	 95.00	
     5.69000	    4.500	 59.44	 95.00	
     5.70000	    4.500	 59.44	 95.00	
     5.71000	    5.000	 59.00	 95.00	
     5.72000	    5.500	 59.55	 95.00	
     5.73000	    5.500	 59.55	 95.00	
     5.74000	    5.500	 59.55	 95.00	
     5.75000	    6.000	 60.00	 95.00	
     5.76000	    6.000	 60.00	 95.00	
     5.77000	    7.000	 60.00	 95.00	
     5.78000	    7.000	 60.00	 95.00	
     5.79000	    7.000	 60.00	 95.00	
     5.80000	    7.000	 60.00	 95.00	
     5.81000	    7.000	 60.00	 95.00	
     5.82000	    7.000	 60.00	 95.00	
     5.83000	    7.000	 60.00	 95.00	
     5.84000	    6.500	 59.62	 95.00	
     5.85000	    7.000	 59.29	 95.00	
     5.86000	    6.500	 59.62	 95.00	
     5.87000	    6.500	 59.62	 95.00	
     5.88000	    7.000	 59.29	 95.00	
     5.89000	    7.000	 59.29	 95.00	
     5.90000	    7.500	 59.67	 95.00	
     5.91000	    7.500	 59.67	 95.00	
     5.92000	    7.500	 59.67	 95.00	
     5.93000	    7.500	 59.67	 95.00	
     5.94000	    7.500	 59.67	 95.00	
     5.95000	    9.500	 48.16	 95.00	
     5.96000	    9.500	 45.00	 95.00	
     5.97000	    9.500	 45.00	 95.00	
     5.98000	    9.500	 45.00	 95.00	
     5.99000	    9.500	 45.00	 95.00	
     6.00000	    9.000	 47.22	 95.00	
     6.01000	    7.000	 59.29	 95.00	
     6.02000	    7.000	 59.29	 95.00	
     6.03000	    7.000	 59.29	 95.00	
     6.04000	    7.000	 59.29	 95.00	
     6.05000	    7.500	 59.00	 95.00	
     6.06000	    8.000	 59.38	 95.00	
     6.07000	    8.000	 59.38	 95.00	
     6.08000	    8.000	 59.38	 95.00	
     6.09000	    8.000	 59.38	 95.00	
     6.10000	    7.500	 59.67	 95.00	
     6.11000	    7.500	 59.67	 95.00	
     6.12000	    7.000	 59.29	 95.00	
     6.13000	    7.000	 59.29	 95.00	
     6.14000	    9.000	 58.33	 97.22	
     6.15000	    8.500	 57.94	 97.35	
     6.16000	    9.000	 57.78	 97.78	
     6.17000	    9.000	 57.78	 97.78	
     6.18000	    8.500	 57.35	 97.94	
     6.19000	    9.000	 57.78	 97.78	
     6.20000	    9.000	 57.78	 97.78	
     6.21000	    9.500	 57.63	 98.16	
     6.22000	    9.500	 57.63	 98.16	
     6.23000	   10.000	 57.50	 98.00	
     6.24000	   10.000	 57.50	 98.00	
     6.25000	   10.500	 57.86	 97.86	
     6.26000	   10.500	 57.86	 97.86	
     6.27000	   10.500	 57.86	 97.86	
     6.28000	   10.500	 57.86	 97.86	
     6.29000	   10.500	 57.86	 97.86	
     6.30000	   10.500	 57.86	 97.86	
     6.31000	   10.000	 57.50	 98.00	
     6.32000	    9.500	 57.63	 98.16	
     6.33000	    9.500	 57.63	 98.16	
     6.34000	    9.500	 57.63	 98.16	
     6.35000	    9.000	 57.22	 98.33	
     6.36000	    8.500	 57.35	 97.94	
     6.37000	   10.500	 47.38	 97.38	
     6.38000	    8.000	 57.50	 98.13	
     6.39000	   10.000	 47.00	 97.50	
     6.40000	   10.000	 44.50	 97.00	
     6.41000	   11.500	 45.87	 95.00	
     6.42000	   11.500	 45.87	 95.00	
     6.43000	    8.000	 36.25	 92.50	
     6.44000	    8.000	 36.25	 92.50	
     6.45000	    8.000	 36.25	 92.50	
     6.46000	   10.500	 40.24	 89.29	
     6.47000	    8.000	 33.13	 92.50	
     6.48000	   10.500	 37.86	 89.29	
     6.49000	   10.500	 37.86	 89.29	
     6.50000	   10.500	 37.86	 89.29	
     6.51000	   11.000	 38.64	 89.55	
     6.52000	   13.000	 42.69	 88.85	
     6.53000	   15.000	 44.33	 91.00	
     6.54000	   15.000	 44.33	 91.00	
     6.55000	   14.500	 45.69	 90.86	
     6.56000	   15.000	 46.00	 91.33	
     6.57000	   14.500	 47.41	 91.21	
     6.58000	   16.500	 49.55	 91.67	
     6.59000	   16.500	 49.55	 91.67	
     6.60000	   16.500	 49.55	 91.67	
     6.61000	   16.500	 49.55	 91.67	
     6.62000	   16.500	 49.55	 91.67	
     6.63000	   17.000	 49.71	 92.06	
     6.64000	   17.000	 49.71	 92.06	
     6.65000	   17.000	 49.71	 92.06	
     6.66000	   17.000	 49.71	 92.06	
     6.67000	   17.000	 49.71	 92.06	
     6.68000	   15.500	 46.29	 91.77	
     6.69000	   15.500	 46.29	 91.77	
     6.70000	   16.000	 45.00	 91.88	
     6.71000	   14.000	 42.14	 92.86	
     6.72000	   11.500	 37.61	 95.43	
     6.73000	   11.500	 37.61	 95.43	
     6.74000	   11.500	 37.61	 95.43	
     6.75000	   11.000	 39.09	 95.45	
     6.76000	   11.000	 39.09	 95.45	
     6.77000	   10.500	 40.71	 95.48	
     6.78000	    9.500	 39.21	 95.00	
     6.79000	   10.000	 40.00	 95.50	
     6.80000	   10.000	 40.00	 95.50	
     6.81000	    8.000	 36.25	 98.13	
     6.82000	    7.500	 35.00	 97.67	
     6.83000	    8.000	 36.25	 98.13	
     6.84000	    8.000	 36.25	 98.13	
     6.85000	    8.000	 36.25	 98.13	
     6.86000	    8.000	 36.25	 98.13	
     6.87000	    8.000	 36.25	 98.13	
     6.88000	    8.000	 36.25	 98.13	
     6.89000	    7.500	 35.00	 97.67	
     6.90000	    7.500	 35.00	 97.67	
     6.91000	   10.000	 30.00	 99.50	
     6.92000	    9.000	 27.22	 99.44	
     6.93000	    9.000	 27.22	 99.44	
     6.94000	    9.000	 27.22	 99.44	
     6.95000	    9.000	 27.22	 99.44	
     6.96000	    9.500	 28.68	 99.21	
     6.97000	    9.000	 27.22	 99.44	
     6.98000	    9.000	 27.22	 99.44	
     6.99000	   10.000	 27.50	100.00	
     7.00000	   10.000	 27.50	100.00	
     7.01000	   10.500	 28.81	 99.76	
     7.02000	   10.500	 28.81	 99.76	
     7.03000	   10.500	 28.81	 99.76	
     7.04000	   10.000	 30.00	100.00	
     7.05000	   10.000	 30.00	100.00	
     7.06000	   10.000	 30.00	100.00	
     7.07000	   10.000	 30.00	100.00	
     7.08000	   10.500	 28.81	 99.76	
     7.09000	    9.500	 26.05	 99.74	
     7.10000	   10.000	 25.00	100.00	
     7.11000	   10.000	 25.00	100.00	
     7.12000	   10.000	 25.00	100.00	
     7.13000	    8.000	 17.50	101.25	
     7.14000	    8.000	 17.50	101.25	
     7.15000	    7.500	 18.33	101.00	
     7.16000	    7.500	 18.33	101.00	
     7.17000	    7.500	 18.33	101.00	
     7.18000	   10.000	 27.50	100.00	
     7.19000	   10.000	 27.50	100.00	
     7.20000	   10.000	 27.50	100.00	
     7.21000	   10.000	 27.50	100.00	
     7.22000	   10.000	 27.50	100.00	
     7.23000	   10.000	 27.50	100.00	
     7.24000	   10.500	 28.81	100.24	
     7.25000	   10.000	 27.50	100.00	
     7.26000	   10.000	 27.50	100.00	
     7.27000	   10.000	 27.50	100.00	
     7.28000	   10.000	 27.50	100.00	
     7.29000	   10.000	 27.50	100.00	
     7.30000	    9.500	 28.68	 99.74	
     7.31000	   10.000	 27.50	 99.50	
     7.32000	   10.000	 27.50	 99.50	
     7.33000	    9.500	 26.05	 99.21	
     7.34000	   10.000	 25.00	 99.00	
     7.35000	   10.000	 25.00	 99.00	
     7.36000	   10.000	 25.00	 99.00	
     7.37000	    8.500	 16.76	 97.35	
     7.38000	    7.000	  5.00	 97.86	
     7.39000	    7.000	  5.00	 97.86	
     7.40000	    7.500	  5.00	 97.67	
     7.41000	    8.000	  5.00	 97.50	
     7.42000	    8.000	  5.00	 97.50	
     7.43000	    8.000	  5.00	 97.50	
     7.44000	    7.500	  5.00	 97.67	
     7.45000	    5.500	  5.00	 95.00	
     7.46000	    5.500	  5.00	 95.00	
     7.47000	    7.000	 19.29	 92.14	
     7.48000	    5.000	  5.00	 95.00	
     7.49000	    7.000	 19.29	 92.14	
     7.50000	    5.000	  5.00	 95.00	
     7.51000	    6.500	 20.38	 91.92	
     7.52000	    8.000	 17.50	 95.00	
     7.53000	    7.000	 19.29	 95.00	
     7.54000	    7.000	 19.29	 95.00	
     7.55000	    6.500	 20.38	 95.00	
     7.56000	    6.500	 20.38	 95.00	
     7.57000	    6.500	 20.38	 95.77	
     7.58000	    4.500	 27.22	 96.11	
     7.59000	    4.000	 30.00	 95.00	
     7.60000	    4.000	 30.00	 95.00	
     7.61000	    4.000	 30.00	 95.00	
     7.62000	    2.000	 55.00	 85.00	
     7.63000	    2.000	 55.00	 85.00	
     7.64000	    2.000	 55.00	 85.00	
     7.65000	    2.000	 55.00	 85.00	
     7.66000	    2.000	 55.00	 85.00	
     7.67000	    2.000	 55.00	 85.00	
     7.68000	    2.000	 55.00	 85.00	
     7.69000	    4.000	 70.00	 90.00	
     7.70000	    4.000	 75.00	 95.00	
     7.71000	    4.000	 75.00	 95.00	
     7.72000	    6.000	 78.33	 95.00	
     7.73000	    6.000	 78.33	 95.00	
     7.74000	    6.000	 78.33	 95.00	
     7.75000	    6.000	 78.33	 95.00	
     7.76000	    6.000	 78.33	 95.00	
     7.77000	    4.000	 60.00	 90.00	
     7.78000	    4.000	 70.00	 90.00	
     7.79000	    4.000	 70.00	 90.00	
     7.80000	    4.000	 70.00	 90.00	
     7.81000	    6.000	 68.33	 91.67	
     7.82000	    8.000	 67.50	 90.00	
     7.83000	    8.000	 67.50	 90.00	
     7.84000	   10.000	 69.00	 91.00	
     7.85000	    6.000	 61.67	 88.33	
     7.86000	    8.000	 67.50	 90.00	
     7.87000	    6.000	 61.67	 88.33	
     7.88000	   10.000	 69.00	 91.00	
     7.89000	    6.000	 61.67	 88.33	
     7.90000	    6.000	 61.67	 88.33	
     7.91000	    6.000	 61.67	 88.33	
     7.92000	    8.000	 65.00	 90.00	
     7.93000	    8.000	 65.00	 90.00	
     7.94000	    6.500	 61.15	 88.08	
     7.95000	    6.500	 61.15	 88.08	
     7.96000	    6.500	 61.15	 88.08	
     7.97000	    6.500	 61.15	 88.08	
     7.98000	    6.500	 61.15	 88.08	
     7.99000	    6.500	 61.15	 88.08	
     8.00000	    6.500	 61.15	 88.08	
     8.01000	    8.500	 57.35	 87.35	
     8.02000	    8.500	 57.35	 87.35	
     8.03000	    8.500	 57.35	 87.35	
     8.04000	    8.500	 57.35	 87.35	
     8.05000	    8.500	 57.35	 87.35	
     8.06000	    8.500	 57.35	 87.35	
     8.07000	    8.500	 57.35	 87.35	
     8.08000	   10.500	 60.71	 88.81	
     8.09000	   12.500	 59.80	 89.80	
     8.10000	    8.500	 64.41	 89.71	
     8.11000	    8.500	 64.41	 89.71	
     8.12000	    8.500	 64.41	 89.71	
     8.13000	    8.500	 64.41	 89.71	
     8.14000	    9.000	 64.44	 90.00	
     8.15000	    8.500	 64.41	 89.71	
     8.16000	    8.500	 64.41	 89.71	
     8.17000	    8.500	 64.41	 89.71	
     8.18000	    8.500	 64.41	 89.71	
     8.19000	    8.500	 64.41	 89.71	
     8.20000	    8.000	 65.00	 90.00	
     8.21000	    8.000	 65.00	 90.00	
     8.22000	    8.000	 65.00	 90.00	
     8.23000	    8.000	 65.00	 90.00	
     8.24000	    6.000	 65.00	 91.67	
     8.25000	    6.000	 65.00	 91.67	
     8.26000	    6.000	 65.00	 91.67	
     8.27000	    4.000	 60.00	 90.00	
     8.28000	    6.000	 68.33	 95.00	
     8.29000	    8.000	 70.00	 95.00	
     8.30000	    8.000	 70.00	 95.00	
     8.31000	    6.000	 68.33	 95.00	
     8.32000	    8.000	 70.00	 95.00	
     8.33000	    8.000	 70.00	 95.00	
     8.34000	    6.000	 75.00	 98.33	
     8.35000	    8.000	 80.00	100.00	
     8.36000	    8.000	 80.00	100.00	
     8.37000	    6.000	 81.67	101.67	
     8.38000	    8.000	 80.00	100.00	
     8.39000	    6.000	 81.67	101.67	
     8.40000	    8.000	 80.00	102.50	
     8.41000	    8.000	 80.00	102.50	
     8.42000	    8.000	 80.00	102.50	
     8.43000	    8.000	 80.00	102.50	
     8.44000	    8.500	 75.59	100.29	
     8.45000	   10.500	 79.29	101.19	
     8.46000	    8.500	 80.29	102.65	
     8.47000	   10.500	 79.29	101.19	
     8.48000	   10.500	 79.29	101.19	
     8.49000	   10.500	 79.29	101.19	
     8.50000	   10.500	 79.29	101.19	
     8.51000	   10.500	 79.29	101.19	
     8.52000	   10.500	 79.29	101.19	
     8.53000	   10.500	 79.29	101.19	
     8.54000	   10.500	 79.29	101.19	
     8.55000	   10.500	 79.29	101.19	
     8.56000	   11.000	 79.09	101.36	
     8.57000	   11.000	 79.09	101.36	
     8.58000	   13.000	 75.38	 98.85	
     8.59000	   11.000	 71.82	 97.73	
     8.60000	   15.000	 74.00	 99.67	
     8.61000	   13.000	 75.38	 98.85	
     8.62000	   13.000	 75.38	 98.85	
     8.63000	   13.000	 75.38	 98.85	
     8.64000	   13.000	 75.38	 98.85	
     8.65000	   11.000	 79.09	101.36	
     8.66000	   11.000	 79.09	101.36	
     8.67000	   13.000	 80.00	100.38	
     8.68000	   13.000	 75.38	 98.85	
     8.69000	   11.000	 79.09	101.36	
     8.70000	   11.000	 79.09	101.36	
     8.71000	   13.000	 75.38	 98.85	
     8.72000	   15.000	 74.00	 99.67	
     8.73000	   13.000	 80.00	100.38	
     8.74000	   11.000	 79.09	101.36	
     8.75000	   11.000	 79.09	101.36	
     8.76000	   11.000	 79.09	101.36	
     8.77000	   11.000	 79.09	101.36	
     8.78000	   11.000	 79.09	101.36	
     8.79000	   10.500	 79.29	101.19	
     8.80000	   10.500	 79.29	101.19	
     8.81000	   10.500	 79.29	101.19	
     8.82000	    8.500	 80.29	102.65	
     8.83000	    9.000	 80.00	102.78	
     8.84000	    9.000	 80.00	102.78	
     8.85000	    9.000	 80.00	102.78	
     8.86000	   11.000	 79.09	101.36	
     8.87000	   11.000	 79.09	101.36	
     8.88000	   11.000	 79.09	101.36	
     8.89000	   13.000	 80.00	100.38	
     8.90000	   15.000	 76.67	 98.33	
     8.91000	   13.000	 80.00	100.38	
     8.92000	   13.000	 75.38	 98.85	
     8.93000	   17.000	 77.65	100.29	
     8.94000	   15.000	 76.67	 98.33	
     8.95000	   15.000	 76.67	 98.33	
     8.96000	   17.000	 77.65	100.29	
     8.97000	   17.000	 77.65	100.29	
     8.98000	   17.000	 77.65	100.29	
     8.99000	   19.500	 76.79	100.90	
     9.00000	   18.000	 78.06	100.28	
     9.01000	   18.000	 77.78	100.28	
     9.02000	   22.500	 75.44	 99.22	
     9.03000	   24.500	 73.78	 98.88	
     9.04000	   25.500	 73.63	 98.73	
     9.05000	   25.500	 73.63	 98.73	
     9.06000	   25.000	 73.40	 98.60	
     9.07000	   23.000	 74.13	 98.04	
     9.08000	   23.500	 72.66	 97.13	
     9.09000	   25.500	 73.43	 98.53	
     9.10000	   24.000	 71.67	 96.88	
     9.11000	   24.000	 71.67	 96.67	
     9.12000	   24.500	 71.33	 96.63	
     9.13000	   23.000	 71.52	 95.65	
     9.14000	   25.000	 71.00	 96.40	
     9.15000	   25.000	 71.00	 96.40	
     9.16000	   23.500	 71.38	 95.43	
     9.17000	   26.000	 70.58	 96.15	
     9.18000	   24.500	 70.92	 95.41	
     9.19000	   26.000	 69.04	 94.62	
     9.20000	   28.000	 68.39	 95.36	
     9.21000	   29.500	 67.71	 94.83	
     9.22000	   29.000	 64.66	 92.59	
     9.23000	   31.000	 66.61	 93.39	
     9.24000	   29.000	 64.66	 92.59	
     9.25000	   29.000	 64.66	 92.59	
     9.26000	   34.000	 62.06	 91.32	
     9.27000	   30.500	 63.03	 91.56	
     9.28000	   32.000	 60.47	 90.16	
     9.29000	   30.500	 60.08	 89.26	
     9.30000	   30.500	 60.08	 89.26	
     9.31000	   31.000	 59.84	 89.19	
     9.32000	   31.000	 59.84	 89.19	
     9.33000	   31.500	 59.60	 88.97	
     9.34000	   32.000	 59.38	 89.06	
     9.35000	   31.500	 58.33	 87.70	
     9.36000	   30.000	 57.67	 88.67	
     9.37000	   29.500	 57.20	 86.53	
     9.38000	   30.000	 57.17	 86.33	
     9.39000	   30.000	 57.00	 86.67	
     9.40000	   30.500	 56.97	 86.48	
     9.41000	   30.500	 56.97	 86.48	
     9.42000	   30.500	 56.97	 86.48	
     9.43000	   30.000	 57.00	 86.67	
     9.44000	   30.500	 56.97	 86.48	
     9.45000	   32.000	 55.63	 86.56	
     9.46000	   32.000	 55.63	 86.56	
     9.47000	   32.500	 55.62	 86.38	
     9.48000	   30.000	 57.00	 88.67	
     9.49000	   28.000	 56.43	 87.50	
     9.50000	   28.000	 56.43	 87.50	
     9.51000	   30.000	 57.00	 88.67	
     9.52000	   28.000	 56.43	 87.50	
     9.53000	   28.000	 56.43	 87.50	
     9.54000	   28.000	 56.43	 87.50	
     9.55000	   30.000	 57.67	 88.67	
     9.56000	   32.000	 58.13	 89.69	
     9.57000	   31.500	 58.02	 89.76	
     9.58000	   31.500	 58.02	 89.76	
     9.59000	   29.500	 56.86	 88.73	
     9.60000	   30.500	 57.79	 89.59	
     9.61000	   27.000	 56.67	 88.33	
     9.62000	   28.000	 57.86	 89.82	
     9.63000	   26.000	 56.92	 88.85	
     9.64000	   23.500	 55.21	 88.40	
     9.65000	   20.500	 54.02	 86.71	
     9.66000	   20.000	 53.75	 86.75	
     9.67000	   18.000	 53.61	 88.06	
     9.68000	   19.500	 51.41	 88.59	
     9.69000	   17.500	 53.29	 87.86	
     9.70000	   18.500	 51.49	 88.51	
     9.71000	   16.500	 52.27	 90.15	
     9.72000	   16.500	 52.27	 90.15	
     9.73000	   12.500	 56.20	 88.60	
     9.74000	   11.500	 51.09	 88.48	
     9.75000	    9.500	 48.16	 89.21	
     9.76000	    5.000	 50.00	 85.00	
     9.77000	    5.000	 50.00	 85.00	
     9.78000	    6.500	 45.77	 88.08	
     9.79000	    4.000	 50.00	 85.00	
     9.80000	    4.000	 50.00	 85.00	
     9.81000	    2.000	 55.00	 85.00	
     9.82000	    2.000	 55.00	 85.00	
     9.83000	    2.000	 55.00	 85.00	
     9.84000	    0.000	  0.00	  0.00	
     9.85000	    0.000	  0.00	  0.00	
     9.86000	    0.000	  0.00	  0.00	
     9.87000	    0.000	  0.00	  0.00	
     9.88000	    0.000	  0.00	  0.00	
     9.89000	    0.000	  0.00	  0.00	
     9.90000	    0.000	  0.00	  0.00	
     9.91000	    0.000	  0.00	  0.00	
     9.92000	    0.000	  0.00	  0.00	
     9.93000	    0.000	  0.00	  0.00	
     9.94000	    0.000	  0.00	  0.00	
     9.95000	    0.000	  0.00	  0.00	
     9.96000	    0.000	  0.00	  0.00	
     9.97000	    0.000	  0.00	  0.00	
     9.98000	    0.000	  0.00	  0.00	
     9.99000	    0.000	  0.00	  0.00	
    10.00000	    0.000	  0.00	  0.00	
    10.01000	    0.000	  0.00	  0.00	
    10.02000	    0.000	  0.00	  0.00	
    10.03000	    0.000	  0.00	  0.00	
    10.04000	    0.000	  0.00	  0.00	
    10.05000	    0.000	  0.00	  0.00	
    10.06000	    0.000	  0.00	  0.00	
    10.07000	    2.000	 55.00	 85.00	
    10.08000	    2.000	 55.00	 85.00	
    10.09000	    2.000	 55.00	 85.00	
    10.10000	    2.000	 55.00	 85.00	
    10.11000	    2.000	 55.00	 85.00	
    10.12000	    2.000	 55.00	 85.00	
    10.13000	    4.000	 55.00	 90.00	
    10.14000	    2.000	 55.00	 85.00	
    10.15000	    6.000	 58.33	 91.67	
    10.16000	    6.000	 58.33	 91.67	
    10.17000	    6.000	 58.33	 91.67	
    10.18000	    6.000	 58.33	 91.67	
    10.19000	    6.000	 58.33	 91.67	
    10.20000	    6.000	 58.33	 91.67	
    10.21000	    6.000	 58.33	 91.67	
    10.22000	    8.000	 60.00	 95.00	
    10.23000	    8.500	 59.71	 94.41	
    10.24000	   10.500	 56.90	 94.52	
    10.25000	   11.000	 53.18	 90.91	
    10.26000	   11.000	 53.18	 90.91	
    10.27000	   13.500	 55.37	 93.15	
    10.28000	   14.500	 55.00	 92.59	
    10.29000	   16.500	 56.21	 91.67	
    10.30000	   17.000	 56.18	 91.76	
    10.31000	   15.000	 55.00	 92.67	
    10.32000	   17.000	 56.18	 91.76	
    10.33000	   17.000	 56.18	 91.76	
    10.34000	   19.500	 53.72	 92.18	
    10.35000	   15.500	 54.68	 90.16	
    10.36000	   19.500	 53.72	 92.18	
    10.37000	   17.500	 52.43	 90.71	
    10.38000	   18.000	 56.11	 91.94	
    10.39000	   16.000	 55.00	 90.31	
    10.40000	   18.000	 56.11	 91.94	
    10.41000	   18.000	 56.11	 91.94	
    10.42000	   18.500	 56.08	 91.76	
    10.43000	   18.500	 56.08	 91.76	
    10.44000	   18.500	 56.08	 91.76	
    10.45000	   18.500	 56.08	 91.76	
    10.46000	   18.500	 56.08	 91.76	
    10.47000	   23.000	 59.57	 93.48	
    10.48000	   22.500	 59.89	 93.44	
    10.49000	   20.000	 58.50	 93.50	
    10.50000	   22.000	 60.00	 93.64	
    10.51000	   19.000	 62.11	 94.74	
    10.52000	   21.500	 60.81	 94.30	
    10.53000	   19.500	 62.44	 95.00	
    10.54000	   17.000	 64.71	 95.29	
    10.55000	   17.000	 64.71	 95.29	
    10.56000	   17.500	 65.00	 95.29	
    10.57000	   17.000	 64.71	 95.29	
    10.58000	   17.500	 65.00	 95.29	
    10.59000	   14.500	 65.00	 97.07	
    10.60000	   16.500	 68.03	 98.03	
    10.61000	   16.000	 68.13	 98.13	
    10.62000	   16.500	 68.03	 98.03	
    10.63000	   16.000	 68.13	 98.13	
    10.64000	   14.500	 70.17	 98.79	
    10.65000	   14.500	 70.17	 98.79	
    10.66000	   14.000	 70.00	 98.93	
    10.67000	   15.000	 70.67	 99.00	
    10.68000	   15.000	 70.67	 99.00	
    10.69000	   15.000	 70.67	 99.00	
    10.70000	   17.000	 72.35	100.88	
    10.71000	   15.000	 70.67	 99.00	
    10.72000	   15.000	 74.67	103.00	
    10.73000	   15.000	 74.67	103.00	
    10.74000	   15.000	 70.67	 99.00	
    10.75000	   16.500	 72.27	101.06	
    10.76000	   14.000	 70.00	 98.93	
    10.77000	   16.500	 72.27	101.06	
    10.78000	   14.500	 74.66	103.28	
    10.79000	   16.500	 74.70	104.70	
    10.80000	   14.500	 74.66	103.28	
    10.81000	   14.500	 74.66	103.28	
    10.82000	   16.500	 74.70	104.70	
    10.83000	   14.500	 74.66	103.28	
    10.84000	   16.500	 72.27	101.06	
    10.85000	   14.000	 75.00	103.57	
    10.86000	   14.500	 74.66	103.28	
    10.87000	   14.000	 75.00	103.57	
    10.88000	   14.000	 72.14	102.14	
    10.89000	   14.000	 75.00	103.57	
    10.90000	   14.000	 75.00	103.57	
    10.91000	   12.000	 73.33	101.67	
    10.92000	   11.500	 69.35	 99.78	
    10.93000	   12.000	 70.00	100.00	
    10.94000	   12.000	 75.00	105.00	
    10.95000	   16.000	 72.50	101.25	
    10.96000	   14.500	 70.52	 99.14	
    10.97000	   16.500	 68.64	 98.64	
    10.98000	   16.500	 68.64	 98.64	
    10.99000	   16.500	 68.64	 98.64	
    11.00000	   16.500	 68.64	 98.64	
    11.01000	   16.500	 68.64	 98.64	
    11.02000	   17.000	 68.82	 98.82	
    11.03000	   18.000	 68.33	 98.61	
    11.04000	   20.000	 67.00	 99.25	
    11.05000	   17.500	 68.14	 98.43	
    11.06000	   18.500	 68.51	 98.51	
    11.07000	   20.500	 65.24	 94.27	
    11.08000	   21.000	 67.14	 99.05	
    11.09000	   21.500	 67.09	 99.19	
    11.10000	   23.500	 65.00	 98.62	
    11.11000	   30.000	 61.67	 94.00	
    11.12000	   29.500	 60.93	 93.47	
    11.13000	   32.500	 59.46	 92.08	
    11.14000	   31.500	 59.29	 91.67	
    11.15000	   32.000	 59.53	 91.88	
    11.16000	   32.000	 59.53	 91.88	
    11.17000	   32.500	 59.46	 92.08	
    11.18000	   33.000	 59.09	 91.82	
    11.19000	   33.500	 59.03	 92.01	
    11.20000	   34.000	 58.97	 91.91	
    11.21000	   33.500	 58.73	 91.72	
    11.22000	   31.500	 57.06	 90.87	
    11.23000	   33.000	 58.94	 91.67	
    11.24000	   33.000	 58.79	 91.82	
    11.25000	   32.500	 59.00	 91.77	
    11.26000	   32.500	 59.00	 91.77	
    11.27000	   32.500	 59.00	 91.77	
    11.28000	   32.500	 59.00	 91.77	
    11.29000	   33.000	 59.09	 91.67	
    11.30000	   35.000	 58.29	 90.14	
    11.31000	   35.500	 58.10	 90.07	
    11.32000	   33.000	 58.64	 91.36	
    11.33000	   32.500	 58.38	 91.31	
    11.34000	   34.500	 57.61	 89.78	
    11.35000	   32.000	 57.34	 90.16	
    11.36000	   31.500	 57.22	 90.08	
    11.37000	   32.000	 57.34	 90.16	
    11.38000	   32.500	 57.31	 90.23	
    11.39000	   33.000	 57.42	 90.30	
    11.40000	   31.500	 57.22	 90.08	
    11.41000	   32.500	 57.31	 90.23	
    11.42000	   32.500	 56.69	 89.46	
    11.43000	   31.500	 57.06	 89.76	
    11.44000	   32.500	 56.38	 88.85	
    11.45000	   32.500	 57.31	 90.23	
    11.46000	   34.500	 57.46	 90.51	
    11.47000	   32.000	 56.56	 88.91	
    11.48000	   31.500	 54.84	 86.43	
    11.49000	   36.000	 56.67	 88.06	
    11.50000	   36.000	 56.81	 88.06	
    11.51000	   34.000	 55.74	 87.65	
    11.52000	   34.000	 55.59	 86.47	
    11.53000	   34.500	 55.72	 87.75	
    11.54000	   35.500	 56.69	 87.82	
    11.55000	   33.500	 55.60	 87.39	
    11.56000	   33.500	 55.60	 87.54	
    11.57000	   33.500	 55.60	 87.39	
    11.58000	   30.000	 55.17	 88.00	
    11.59000	   32.000	 54.22	 85.63	
    11.60000	   32.000	 54.22	 85.63	
    11.61000	   31.000	 54.19	 85.48	
    11.62000	   31.500	 54.05	 85.48	
    11.63000	   33.000	 55.45	 87.27	
    11.64000	   33.000	 55.30	 87.27	
    11.65000	   32.000	 54.22	 85.63	
    11.66000	   32.000	 54.22	 85.63	
    11.67000	   33.000	 55.30	 87.27	
    11.68000	   33.000	 56.67	 90.91	
    11.69000	   33.000	 55.45	 87.27	
    11.70000	   33.000	 55.45	 87.27	
    11.71000	   35.500	 54.15	 86.55	
    11.72000	   33.000	 52.88	 84.85	
    11.73000	   34.500	 54.28	 86.59	
    11.74000	   35.000	 55.86	 88.86	
    11.75000	   37.000	 55.27	 88.38	
    11.76000	   35.500	 54.58	 86.83	
    11.77000	   36.500	 54.86	 88.15	
    11.78000	   36.500	 54.86	 88.15	
    11.79000	   37.000	 54.86	 88.11	
    11.80000	   37.000	 54.86	 88.11	
    11.81000	   35.500	 56.41	 89.08	
    11.82000	   37.500	 55.27	 88.33	
    11.83000	   38.000	 55.13	 88.29	
    11.84000	   37.000	 55.27	 88.38	
    11.85000	   35.500	 54.58	 86.83	
    11.86000	   37.500	 55.27	 88.33	
    11.87000	   37.500	 55.27	 88.33	
    11.88000	   33.500	 55.75	 87.54	
    11.89000	   35.500	 54.58	 86.83	
    11.90000	   37.000	 55.27	 88.38	
    11.91000	   33.500	 55.90	 87.54	
    11.92000	   37.500	 55.13	 88.33	
    11.93000	   37.000	 55.27	 88.38	
    11.94000	   35.000	 56.43	 89.14	
    11.95000	   35.500	 56.41	 89.08	
    11.96000	   35.000	 54.71	 86.86	
    11.97000	   35.500	 54.58	 86.83	
    11.98000	   35.500	 54.72	 86.83	
    11.99000	   35.500	 54.72	 86.83	
    12.00000	   35.000	 54.71	 86.86	
    12.01000	   35.500	 54.72	 86.83	
    12.02000	   35.000	 54.29	 86.57	
    12.03000	   33.500	 53.51	 85.15	
    12.04000	   33.000	 52.88	 84.85	
    12.05000	   33.500	 53.21	 85.15	
    12.06000	   36.000	 54.58	 86.81	
    12.07000	   34.500	 53.84	 85.58	
    12.08000	   37.500	 52.20	 84.20	
    12.09000	   38.000	 52.24	 84.34	
    12.10000	   40.000	 53.38	 84.88	
    12.11000	   40.000	 52.75	 84.25	
    12.12000	   41.000	 52.80	 84.15	
    12.13000	   41.500	 52.71	 84.28	
    12.14000	   43.000	 52.56	 85.58	
    12.15000	   48.000	 52.19	 85.63	
    12.16000	   50.000	 51.50	 85.60	
    12.17000	   47.500	 49.84	 84.58	
    12.18000	   47.500	 49.84	 84.58	
    12.19000	   47.500	 49.84	 84.58	
    12.20000	   49.500	 48.84	 82.98	
    12.21000	   48.000	 47.81	 83.44	
    12.22000	   50.000	 46.70	 81.60	
    12.23000	   51.500	 46.46	 81.60	
    12.24000	   49.000	 47.24	 82.24	
    12.25000	   48.500	 47.06	 82.11	
    12.26000	   51.000	 45.88	 81.37	
    12.27000	   50.500	 45.79	 81.44	
    12.28000	   47.000	 45.53	 81.28	
    12.29000	   48.000	 44.69	 80.73	
    12.30000	   47.500	 45.74	 81.42	
    12.31000	   46.500	 45.43	 81.13	
    12.32000	   47.000	 45.64	 81.28	
    12.33000	   49.500	 44.49	 79.95	
    12.34000	   49.500	 44.60	 80.66	
    12.35000	   50.000	 43.30	 78.80	
    12.36000	   48.000	 44.06	 79.38	
    12.37000	   48.500	 44.18	 79.54	
    12.38000	   48.000	 44.06	 79.38	
    12.39000	   50.000	 43.30	 78.80	
    12.40000	   48.500	 44.18	 79.64	
    12.41000	   48.500	 43.35	 80.05	
    12.42000	   46.000	 44.24	 80.98	
    12.43000	   46.500	 42.42	 79.84	
    12.44000	   44.500	 43.20	 80.51	
    12.45000	   45.500	 44.12	 80.93	
    12.46000	   43.000	 43.14	 80.70	
    12.47000	   42.500	 43.00	 80.41	
    12.48000	   42.500	 43.00	 80.41	
    12.49000	   44.500	 44.55	 81.63	
    12.50000	   44.000	 44.55	 81.82	
    12.51000	   44.000	 44.55	 81.82	
    12.52000	   45.500	 43.79	 81.04	
    12.53000	   44.000	 44.55	 81.82	
    12.54000	   42.500	 46.65	 84.06	
    12.55000	   44.000	 45.57	 83.18	
    12.56000	   42.000	 46.55	 84.05	
    12.57000	   42.000	 46.55	 84.05	
    12.58000	   44.500	 45.45	 82.87	
    12.59000	   46.000	 44.24	 81.52	
    12.60000	   46.500	 44.14	 81.24	
    12.61000	   45.000	 45.44	 82.67	
    12.62000	   44.500	 45.56	 82.53	
    12.63000	   45.000	 45.44	 82.67	
    12.64000	   47.000	 44.15	 81.06	
    12.65000	   48.500	 43.97	 79.85	
    12.66000	   46.000	 44.02	 80.76	
    12.67000	   46.500	 45.54	 81.34	
    12.68000	   48.500	 44.28	 79.85	
    12.69000	   48.000	 44.06	 79.69	
    12.70000	   48.000	 44.06	 79.69	
    12.71000	   48.500	 44.28	 79.85	
    12.72000	   46.500	 45.54	 81.34	
    12.73000	   49.500	 44.49	 79.95	
    12.74000	   49.500	 44.39	 79.95	
    12.75000	   51.000	 44.80	 80.29	
    12.76000	   50.000	 44.40	 80.00	
    12.77000	   48.500	 45.72	 81.49	
    12.78000	   49.500	 44.39	 79.95	
    12.79000	   50.500	 44.41	 79.85	
    12.80000	   51.000	 44.61	 80.00	
    12.81000	   55.000	 45.73	 79.64	
    12.82000	   51.500	 47.43	 82.57	
    12.83000	   52.000	 47.40	 82.31	
    12.84000	   53.000	 46.89	 80.94	
    12.85000	   55.500	 45.72	 79.41	
    12.86000	   56.000	 47.95	 81.43	
    12.87000	   55.500	 47.52	 81.94	
    12.88000	   53.500	 47.99	 83.32	
    12.89000	   55.500	 47.61	 82.03	
    12.90000	   56.000	 49.29	 84.38	
    12.91000	   59.500	 49.20	 83.15	
    12.92000	   59.000	 50.42	 85.34	
    12.93000	   59.500	 49.20	 83.15	
    12.94000	   57.500	 48.30	 82.74	
    12.95000	   59.500	 50.55	 85.50	
    12.96000	   57.500	 48.30	 82.74	
    12.97000	   62.000	 49.92	 84.03	
    12.98000	   57.500	 49.09	 82.83	
    12.99000	   62.000	 49.92	 84.03	
    13.00000	   60.000	 49.08	 83.67	
    13.01000	   59.500	 49.96	 83.24	
    13.02000	   62.000	 49.92	 84.03	
    13.03000	   62.000	 49.92	 84.03	
    13.04000	   61.500	 49.80	 83.94	
    13.05000	   62.500	 49.64	 83.48	
    13.06000	   63.000	 49.76	 83.57	
    13.07000	   62.500	 49.64	 83.48	
    13.08000	   62.000	 49.84	 83.63	
    13.09000	   62.000	 49.92	 82.90	
    13.10000	   66.500	 49.89	 82.59	
    13.11000	   66.500	 49.89	 82.59	
    13.12000	   66.000	 49.92	 82.73	
    13.13000	   64.000	 49.61	 83.36	
    13.14000	   64.500	 50.35	 82.21	
    13.15000	   64.000	 50.23	 82.11	
    13.16000	   69.000	 50.51	 83.04	
    13.17000	   68.500	 50.91	 83.54	
    13.18000	   66.000	 51.29	 83.41	
    13.19000	   68.000	 50.81	 83.46	
    13.20000	   64.500	 51.98	 83.06	
    13.21000	   68.500	 51.20	 83.25	
    13.22000	   68.000	 50.81	 83.46	
    13.23000	   68.500	 50.91	 83.54	
    13.24000	   66.500	 51.17	 83.12	
    13.25000	   67.500	 51.52	 83.37	
    13.26000	   63.500	 52.56	 82.80	
    13.27000	   66.500	 51.54	 83.57	
    13.28000	   69.000	 51.52	 83.48	
    13.29000	   67.000	 51.64	 83.66	
    13.30000	   67.000	 51.42	 83.28	
    13.31000	   67.000	 51.64	 83.66	
    13.32000	   67.500	 51.52	 83.37	
    13.33000	   67.000	 51.72	 82.69	
    13.34000	   67.500	 51.59	 83.44	
    13.35000	   66.000	 52.20	 83.18	
    13.36000	   66.500	 52.07	 82.97	
    13.37000	   67.000	 52.01	 82.91	
    13.38000	   68.000	 52.13	 83.09	
    13.39000	   66.500	 52.22	 83.12	
    13.40000	   66.500	 52.14	 83.20	
    13.41000	   68.500	 51.86	 82.74	
    13.42000	   68.500	 51.86	 83.47	
    13.43000	   68.500	 51.93	 83.76	
    13.44000	   65.500	 52.10	 83.09	
    13.45000	   69.000	 51.81	 82.68	
    13.46000	   68.500	 51.72	 83.47	
    13.47000	   67.000	 52.16	 82.99	
    13.48000	   66.500	 52.22	 83.12	
    13.49000	   66.500	 52.22	 83.12	
    13.50000	   66.500	 52.22	 83.12	
    13.51000	   66.500	 52.22	 83.12	
    13.52000	   66.500	 52.22	 83.12	
    13.53000	   70.500	 51.52	 83.23	
    13.54000	   66.500	 52.22	 83.12	
    13.55000	   68.500	 52.01	 82.88	
    13.56000	   68.000	 52.13	 83.09	
    13.57000	   68.500	 51.72	 83.47	
    13.58000	   68.500	 52.01	 82.88	
    13.59000	   68.500	 52.01	 82.88	
    13.60000	   68.000	 52.06	 82.79	
    13.61000	   69.000	 52.17	 83.12	
    13.62000	   69.000	 51.96	 82.75	
    13.63000	   68.500	 52.01	 82.88	
    13.64000	   69.000	 52.25	 83.04	
    13.65000	   67.500	 52.33	 83.22	
    13.66000	   67.500	 52.19	 81.89	
    13.67000	   69.000	 52.03	 82.46	
    13.68000	   72.500	 52.17	 81.90	
    13.69000	   73.000	 52.05	 81.78	
    13.70000	   70.500	 52.38	 82.94	
    13.71000	   75.000	 51.60	 82.13	
    13.72000	   73.000	 51.78	 81.51	
    13.73000	   70.500	 52.38	 81.24	
    13.74000	   73.000	 52.05	 81.85	
    13.75000	   74.000	 52.36	 82.03	
    13.76000	   76.500	 51.73	 82.45	
    13.77000	   74.000	 52.30	 82.16	
    13.78000	   74.500	 52.11	 82.05	
    13.79000	   74.000	 52.09	 81.89	
    13.80000	   74.500	 52.18	 82.11	
    13.81000	   79.000	 51.71	 81.77	
    13.82000	   76.000	 52.24	 81.78	
    13.83000	   76.000	 52.24	 81.91	
    13.84000	   76.000	 52.24	 81.71	
    13.85000	   76.000	 52.76	 81.05	
    13.86000	   77.000	 51.95	 81.49	
    13.87000	   78.000	 52.31	 81.79	
    13.88000	   78.000	 52.18	 81.41	
    13.89000	   77.000	 52.53	 81.88	
    13.90000	   77.000	 52.60	 80.84	
    13.91000	   82.500	 51.79	 81.42	
    13.92000	   80.000	 52.38	 81.44	
    13.93000	   80.500	 52.27	 81.34	
    13.94000	   80.500	 52.27	 81.34	
    13.95000	   81.500	 52.30	 81.38	
    13.96000	   81.000	 52.16	 81.17	
    13.97000	   81.000	 52.16	 81.17	
    13.98000	   80.500	 52.27	 81.34	
    13.99000	   82.000	 52.32	 81.28	
    14.00000	   80.500	 52.52	 81.52	
    14.01000	   80.500	 52.27	 81.34	
    14.02000	   80.500	 52.02	 81.09	
    14.03000	   81.500	 52.30	 81.32	
    14.04000	   81.000	 52.41	 81.48	
    14.05000	   80.000	 52.63	 80.81	
    14.06000	   82.000	 52.44	 81.40	
    14.07000	   81.000	 52.22	 81.23	
    14.08000	   79.500	 52.55	 80.72	
    14.09000	   82.500	 52.39	 81.36	
    14.10000	   82.000	 52.44	 81.40	
    14.11000	   81.500	 52.36	 81.32	
    14.12000	   81.500	 52.36	 81.32	
    14.13000	   81.500	 52.36	 81.13	
    14.14000	   82.000	 52.44	 81.40	
    14.15000	   82.500	 52.39	 81.24	
    14.16000	   82.500	 52.33	 81.12	
    14.17000	   83.500	 52.25	 80.93	
    14.18000	   82.000	 52.26	 80.91	
    14.19000	   80.000	 52.63	 80.81	
    14.20000	   83.000	 52.23	 81.14	
    14.21000	   83.500	 52.49	 81.11	
    14.22000	   84.000	 52.56	 81.31	
    14.23000	   83.000	 52.59	 81.57	
    14.24000	   83.500	 52.37	 81.11	
    14.25000	   83.000	 52.41	 81.20	
    14.26000	   85.000	 52.71	 81.41	
    14.27000	   84.000	 52.56	 81.31	
    14.28000	   85.000	 52.35	 81.00	
    14.29000	   85.500	 52.54	 81.26	
    14.30000	   84.500	 52.63	 81.39	
    14.31000	   85.500	 52.84	 81.43	
    14.32000	   85.000	 52.88	 81.47	
    14.33000	   84.000	 52.68	 81.25	
    14.34000	   85.500	 52.54	 81.20	
    14.35000	   87.000	 52.82	 81.55	
    14.36000	   85.000	 53.00	 81.00	
    14.37000	   86.500	 52.63	 81.24	
    14.38000	   86.500	 52.63	 81.30	
    14.39000	   86.500	 52.46	 81.07	
    14.40000	   85.000	 52.59	 81.24	
    14.41000	   87.500	 52.60	 81.34	
    14.42000	   85.000	 52.88	 80.94	
    14.43000	   86.500	 52.75	 81.36	
    14.44000	   87.000	 52.82	 81.38	
    14.45000	   85.500	 52.37	 80.96	
    14.46000	   86.500	 52.63	 81.36	
    14.47000	   85.000	 52.47	 81.06	
    14.48000	   85.000	 52.35	 81.18	
    14.49000	   86.000	 52.79	 81.45	
    14.50000	   85.000	 52.71	 81.29	
    14.51000	   85.500	 52.60	 81.26	
    14.52000	   84.500	 52.34	 81.04	
    14.53000	   85.000	 52.59	 81.47	
    14.54000	   84.500	 52.40	 81.21	
    14.55000	   84.500	 52.16	 80.86	
    14.56000	   84.000	 52.50	 81.31	
    14.57000	   84.000	 52.26	 81.13	
    14.58000	   84.500	 52.28	 81.09	
    14.59000	   85.000	 52.35	 81.18	
    14.60000	   84.500	 52.46	 81.27	
    14.61000	   84.000	 52.50	 81.43	
    14.62000	   84.500	 52.51	 81.21	
    14.63000	   85.000	 52.53	 81.35	
    14.64000	   84.500	 52.34	 81.33	
    14.65000	   85.000	 52.71	 81.65	
    14.66000	   85.500	 52.72	 81.55	
    14.67000	   86.500	 52.86	 81.65	
    14.68000	   85.500	 52.72	 81.49	
    14.69000	   86.000	 52.91	 81.69	
    14.70000	   86.000	 52.91	 81.69	
    14.71000	   86.000	 52.67	 81.45	
    14.72000	   86.500	 52.86	 81.65	
    14.73000	   86.500	 52.86	 81.65	
    14.74000	   86.000	 52.91	 81.69	
    14.75000	   86.500	 52.86	 81.65	
    14.76000	   87.000	 52.70	 81.49	
    14.77000	   86.500	 52.86	 81.65	
    14.78000	   87.000	 52.76	 81.49	
    14.79000	   87.500	 52.60	 81.17	
    14.80000	   87.000	 52.76	 81.49	
    14.81000	   88.500	 52.91	 81.61	
    14.82000	   87.000	 52.82	 81.44	
    14.83000	   87.500	 52.71	 81.40	
    14.84000	   89.000	 52.75	 81.40	
    14.85000	   88.000	 52.78	 81.36	
    14.86000	   89.000	 52.64	 81.18	
    14.87000	   89.000	 52.53	 80.96	
    14.88000	   89.500	 52.65	 81.09	
    14.89000	   90.500	 52.85	 81.41	
    14.90000	   89.500	 52.88	 81.59	
    14.91000	   90.000	 52.83	 81.50	
    14.92000	   90.500	 52.85	 81.41	
    14.93000	   90.000	 52.83	 81.50	
    14.94000	   90.500	 52.85	 81.41	
    14.95000	   90.000	 52.83	 81.50	
    14.96000	   90.500	 52.73	 81.30	
    14.97000	   90.500	 52.73	 81.30	
    14.98000	   90.500	 52.85	 81.41	
    14.99000	   90.500	 52.85	 81.41	
    15.00000	   90.500	 52.73	 81.30	
    15.01000	   93.000	 53.01	 80.65	
    15.02000	   91.000	 52.75	 81.21	
    15.03000	   93.000	 53.01	 80.65	
    15.04000	   90.500	 52.73	 81.30	
    15.05000	   91.500	 52.60	 81.01	
    15.06000	   92.000	 53.10	 80.92	
    15.07000	   91.000	 52.75	 81.21	
    15.08000	   91.000	 52.75	 81.21	
    15.09000	   93.000	 52.96	 80.54	
    15.10000	   93.000	 53.01	 80.65	
    15.11000	   90.500	 52.73	 81.30	
    15.12000	   92.500	 53.00	 80.73	
    15.13000	   91.500	 52.70	 81.01	
    15.14000	   93.000	 52.96	 80.54	
    15.15000	   91.500	 52.98	 80.74	
    15.16000	   91.500	 52.98	 80.74	
    15.17000	   90.000	 52.61	 81.11	
    15.18000	   88.000	 52.73	 81.31	
    15.19000	   89.000	 52.64	 81.18	
    15.20000	   88.000	 52.95	 81.59	
    15.21000	   87.000	 52.59	 81.03	
    15.22000	   89.500	 52.82	 80.53	
    15.23000	   87.500	 52.89	 80.37	
    15.24000	   86.000	 52.67	 81.16	
    15.25000	   84.500	 52.51	 80.98	
    15.26000	   83.000	 52.65	 81.27	
    15.27000	   82.000	 52.62	 81.59	
    15.28000	   80.500	 52.95	 81.77	
    15.29000	   80.000	 52.75	 81.50	
    15.30000	   78.000	 52.56	 81.41	
    15.31000	   77.500	 52.29	 81.13	
    15.32000	   76.500	 52.25	 80.95	
    15.33000	   75.500	 52.28	 81.09	
    15.34000	   72.500	 52.17	 81.48	
    15.35000	   69.000	 51.81	 80.14	
    15.36000	   66.000	 52.12	 80.30	
    15.37000	   64.500	 51.82	 80.12	
    15.38000	   64.500	 51.82	 80.12	
    15.39000	   64.000	 51.72	 80.00	
    15.40000	   67.500	 51.37	 79.59	
    15.41000	   73.000	 50.96	 80.34	
    15.42000	   79.000	 50.89	 80.13	
    15.43000	   96.000	 51.67	 80.94	
    15.44000	  130.000	 51.65	 80.42	
    15.45000	  183.000	 53.96	 82.38	
    15.46000	  253.500	 55.06	 82.02	
    15.47000	  342.500	 55.55	 82.20	
    15.48000	  429.000	 56.13	 81.93	
    15.49000	  501.000	 56.62	 81.62	
    15.50000	  562.000	 56.91	 80.96	
    15.51000	  604.000	 57.06	 81.16	
    15.52000	  627.500	 57.38	 81.03	
    15.53000	  632.500	 57.47	 80.99	
    15.54000	  619.000	 57.38	 80.74	
    15.55000	  595.000	 57.27	 80.45	
    15.56000	  559.000	 57.25	 80.30	
    15.57000	  518.500	 57.20	 80.44	
    15.58000	  475.000	 57.59	 81.01	
    15.59000	  443.000	 57.46	 80.96	
    15.60000	  413.000	 57.37	 80.93	
    15.61000	  385.500	 57.36	 80.97	
    15.62000	  359.500	 57.11	 80.44	
    15.63000	  339.000	 57.04	 80.21	
    15.64000	  320.000	 56.89	 80.28	
    15.65000	  307.000	 56.86	 80.28	
    15.66000	  297.500	 56.82	 80.60	
    15.67000	  282.500	 56.88	 80.54	
    15.68000	  270.500	 57.03	 80.90	
    15.69000	  264.000	 56.88	 81.16	
    15.70000	  254.500	 56.93	 81.31	
    15.71000	  247.000	 57.11	 81.34	
    15.72000	  235.500	 56.93	 81.65	
    15.73000	  226.000	 57.37	 81.57	
    15.74000	  213.000	 56.88	 81.62	
    15.75000	  202.000	 57.03	 81.86	
    15.76000	  185.500	 56.70	 82.17	
    15.77000	  176.500	 56.78	 82.20	
    15.78000	  165.000	 56.76	 82.48	
    15.79000	  156.000	 56.73	 82.92	
    15.80000	  144.000	 56.35	 83.09	
    15.81000	  128.000	 56.48	 83.71	
    15.82000	  117.500	 56.74	 83.51	
    15.83000	  105.000	 56.86	 85.10	
    15.84000	   93.500	 57.46	 85.86	
    15.85000	   78.000	 58.59	 86.15	
    15.86000	   64.500	 59.65	 88.26	
    15.87000	   59.500	 59.96	 89.29	
    15.88000	   53.000	 59.25	 89.34	
    15.89000	   49.000	 59.59	 90.20	
    15.90000	   43.500	 60.63	 91.78	
    15.91000	   28.000	 67.14	104.82	
    15.92000	   23.000	 70.65	109.78	
    15.93000	   18.500	 70.14	106.35	
    15.94000	   14.000	 70.00	108.21	
    15.95000	   11.500	 67.61	108.91	
    15.96000	   11.000	 67.27	108.64	
    15.97000	    4.500	 69.44	105.00	
    15.98000	    4.500	 69.44	105.00	
    15.99000	    2.000	 65.00	105.00	
    16.00000	    2.000	 65.00	105.00	
    16.01000	    2.000	 65.00	105.00	
    16.02000	    0.000	  0.00	  0.00	
    16.03000	    0.000	  0.00	  0.00	
    16.04000	    0.000	  0.00	  0.00	
    16.05000	    0.000	  0.00	  0.00	
    16.06000	    0.000	  0.00	  0.00	
    16.07000	    0.000	  0.00	  0.00	
    16.08000	    0.000	  0.00	  0.00	
    16.09000	    0.000	  0.00	  0.00	
    16.10000	    0.000	  0.00	  0.00	
    16.11000	    0.000	  0.00	  0.00	
    16.12000	    0.000	  0.00	  0.00	
    16.13000	    0.000	  0.00	  0.00	
    16.14000	    0.000	  0.00	  0.00	
    16.15000	    0.000	  0.00	  0.00	
    16.16000	    0.000	  0.00	  0.00	
    16.17000	    0.000	  0.00	  0.00	
    16.18000	    0.000	  0.00	  0.00	
    16.19000	    0.000	  0.00	  0.00	
    16.20000	    0.000	  0.00	  0.00	
    16.21000	    0.000	  0.00	  0.00	
    16.22000	    0.000	  0.00	  0.00	
    16.23000	    0.000	  0.00	  0.00	
    16.24000	    0.000	  0.00	  0.00	
    16.25000	    0.000	  0.00	  0.00	
    16.26000	    0.000	  0.00	  0.00	
    16.27000	    0.000	  0.00	  0.00	
    16.28000	    0.000	  0.00	  0.00	
    16.29000	    0.000	  0.00	  0.00	
    16.30000	    0.000	  0.00	  0.00	
    16.31000	    0.000	  0.00	  0.00	
    16.32000	    0.000	  0.00	  0.00	
    16.33000	    0.000	  0.00	  0.00	
    16.34000	    0.000	  0.00	  0.00	
    16.35000	    0.000	  0.00	  0.00	
    16.36000	    0.000	  0.00	  0.00	
    16.37000	    0.000	  0.00	  0.00	
    16.38000	    0.000	  0.00	  0.00	
    16.39000	    0.000	  0.00	  0.00	
    16.40000	    0.000	  0.00	  0.00	
    16.41000	    0.000	  0.00	  0.00	
    16.42000	    0.000	  0.00	  0.00	
    16.43000	    0.000	  0.00	  0.00	
    16.44000	    0.000	  0.00	  0.00	
    16.45000	    0.000	  0.00	  0.00	
    16.46000	    0.000	  0.00	  0.00	
    16.47000	    0.000	  0.00	  0.00	
    16.48000	    0.000	  0.00	  0.00	
    16.49000	    0.000	  0.00	  0.00	
    16.50000	    0.000	  0.00	  0.00	
    16.51000	    0.000	  0.00	  0.00	
    16.52000	    0.000	  0.00	  0.00	
    16.53000	    0.000	  0.00	  0.00	
    16.54000	    0.000	  0.00	  0.00	
    16.55000	    0.000	  0.00	  0.00	
    16.56000	    0.000	  0.00	  0.00	
    16.57000	    0.000	  0.00	  0.00	
    16.58000	    0.000	  0.00	  0.00	
    16.59000	    0.000	  0.00	  0.00	
    16.60000	    0.000	  0.00	  0.00	
    16.61000	    0.000	  0.00	  0.00	
    16.62000	    0.000	  0.00	  0.00	
    16.63000	    0.000	  0.00	  0.00	
    16.64000	    0.000	  0.00	  0.00	
    16.65000	    0.000	  0.00	  0.00	
    16.66000	    0.000	  0.00	  0.00	
    16.67000	    0.000	  0.00	  0.00	
    16.68000	    0.000	  0.00	  0.00	
    16.69000	    0.000	  0.00	  0.00	
    16.70000	    0.000	  0.00	  0.00	
    16.71000	    0.000	  0.00	  0.00	
    16.72000	    0.000	  0.00	  0.00	
    16.73000	    0.000	  0.00	  0.00	
    16.74000	    0.000	  0.00	  0.00	
    16.75000	    0.000	  0.00	  0.00	
    16.76000	    0.000	  0.00	  0.00	
    16.77000	    0.000	  0.00	  0.00	
    16.78000	    0.000	  0.00	  0.00	
    16.79000	    0.000	  0.00	  0.00	
    16.80000	    0.000	  0.00	  0.00	
    16.81000	    0.000	  0.00	  0.00	
    16.82000	    0.000	  0.00	  0.00	
    16.83000	    0.000	  0.00	  0.00	
    16.84000	    0.000	  0.00	  0.00	
    16.85000	    0.000	  0.00	  0.00	
    16.86000	    0.000	  0.00	  0.00	
    16.87000	    0.000	  0.00	  0.00	
    16.88000	    0.000	  0.00	  0.00	
    16.89000	    0.000	  0.00	  0.00	
    16.90000	    0.000	  0.00	  0.00	
    16.91000	    0.000	  0.00	  0.00	
    16.92000	    0.000	  0.00	  0.00	
    16.93000	    0.000	  0.00	  0.00	
    16.94000	    0.000	  0.00	  0.00	
    16.95000	    0.000	  0.00	  0.00	
    16.96000	    0.000	  0.00	  0.00	
    16.97000	    0.000	  0.00	  0.00	
    16.98000	    0.000	  0.00	  0.00	
    16.99000	    0.000	  0.00	  0.00	
    17.00000	    0.000	  0.00	  0.00	
    17.01000	    0.000	  0.00	  0.00	
    17.02000	    0.000	  0.00	  0.00	
    17.03000	    0.000	  0.00	  0.00	
    17.04000	    0.000	  0.00	  0.00	
    17.05000	    0.000	  0.00	  0.00	
    17.06000	    0.000	  0.00	  0.00	
    17.07000	    0.000	  0.00	  0.00	
    17.08000	    0.000	  0.00	  0.00	
    17.09000	    0.000	  0.00	  0.00	
    17.10000	    0.000	  0.00	  0.00	
    17.11000	    0.000	  0.00	  0.00	
    17.12000	    0.000	  0.00	  0.00	
    17.13000	    0.000	  0.00	  0.00	
    17.14000	    0.000	  0.00	  0.00	
    17.15000	    0.000	  0.00	  0.00	
    17.16000	    0.000	  0.00	  0.00	
    17.17000	    0.000	  0.00	  0.00	
    17.18000	    0.000	  0.00	  0.00	
    17.19000	    0.000	  0.00	  0.00	
    17.20000	    0.000	  0.00	  0.00	
    17.21000	    0.000	  0.00	  0.00	
    17.22000	    0.000	  0.00	  0.00	
    17.23000	    0.000	  0.00	  0.00	
    17.24000	    0.000	  0.00	  0.00	
    17.25000	    0.000	  0.00	  0.00	
    17.26000	    0.000	  0.00	  0.00	
    17.27000	    0.000	  0.00	  0.00	
    17.28000	    0.000	  0.00	  0.00	
    17.29000	    0.000	  0.00	  0.00	
    17.30000	    0.000	  0.00	  0.00	
    17.31000	    0.000	  0.00	  0.00	
    17.32000	    0.000	  0.00	  0.00	
    17.33000	    0.000	  0.00	  0.00	
    17.34000	    0.000	  0.00	  0.00	
    17.35000	    0.000	  0.00	  0.00	
    17.36000	    0.000	  0.00	  0.00	
    17.37000	    0.000	  0.00	  0.00	
    17.38000	    0.000	  0.00	  0.00	
    17.39000	    0.000	  0.00	  0.00	
    17.40000	    0.000	  0.00	  0.00	
    17.41000	    0.000	  0.00	  0.00	
    17.42000	    0.000	  0.00	  0.00	
    17.43000	    0.000	  0.00	  0.00	
    17.44000	    0.000	  0.00	  0.00	
    17.45000	    0.000	  0.00	  0.00	
    17.46000	    0.000	  0.00	  0.00	
    17.47000	    0.000	  0.00	  0.00	
    17.48000	    0.000	  0.00	  0.00	
    17.49000	    0.000	  0.00	  0.00	
    17.50000	    0.000	  0.00	  0.00	
    17.51000	    0.000	  0.00	  0.00	
    17.52000	    0.000	  0.00	  0.00	
    17.53000	    0.000	  0.00	  0.00	
    17.54000	    0.000	  0.00	  0.00	
    17.55000	    0.000	  0.00	  0.00	
    17.56000	    0.000	  0.00	  0.00	
    17.57000	    0.000	  0.00	  0.00	
    17.58000	    0.000	  0.00	  0.00	
    17.59000	    0.000	  0.00	  0.00	
    17.60000	    0.000	  0.00	  0.00	
    17.61000	    0.000	  0.00	  0.00	
    17.62000	    0.000	  0.00	  0.00	
    17.63000	    0.000	  0.00	  0.00	
