file name:  S2128_09_1_2_MPa_PXF440_220809_296.mat	date/time  03.09.22 13.04
sensor type:  s2128_09_1_2_mpa_pxf440_220809 
force time integral[N*s]:       523.495
pressure time integral [kPa*s]:      597.500
total time [secs]:  16.410	time per frame [secs]:  0.01000	scanning rate [Hz]:   100


time[secs]    	force[N]   	x[mm]     	y[mm] 	

     0.01000	    0.000	  0.00	  0.00	
     0.02000	    0.000	  0.00	  0.00	
     0.03000	    0.000	  0.00	  0.00	
     0.04000	    0.000	  0.00	  0.00	
     0.05000	    0.000	  0.00	  0.00	
     0.06000	    0.000	  0.00	  0.00	
     0.07000	    0.000	  0.00	  0.00	
     0.08000	    0.000	  0.00	  0.00	
     0.09000	    0.000	  0.00	  0.00	
     0.10000	    0.000	  0.00	  0.00	
     0.11000	    0.000	  0.00	  0.00	
     0.12000	    0.000	  0.00	  0.00	
     0.13000	    0.000	  0.00	  0.00	
     0.14000	    0.000	  0.00	  0.00	
     0.15000	    0.000	  0.00	  0.00	
     0.16000	    0.000	  0.00	  0.00	
     0.17000	    0.000	  0.00	  0.00	
     0.18000	    0.000	  0.00	  0.00	
     0.19000	    0.000	  0.00	  0.00	
     0.20000	    0.000	  0.00	  0.00	
     0.21000	    0.000	  0.00	  0.00	
     0.22000	    0.000	  0.00	  0.00	
     0.23000	    0.000	  0.00	  0.00	
     0.24000	    0.000	  0.00	  0.00	
     0.25000	    0.000	  0.00	  0.00	
     0.26000	    0.000	  0.00	  0.00	
     0.27000	    0.000	  0.00	  0.00	
     0.28000	    0.000	  0.00	  0.00	
     0.29000	    0.000	  0.00	  0.00	
     0.30000	    0.000	  0.00	  0.00	
     0.31000	    0.000	  0.00	  0.00	
     0.32000	    0.000	  0.00	  0.00	
     0.33000	    0.000	  0.00	  0.00	
     0.34000	    0.000	  0.00	  0.00	
     0.35000	    0.000	  0.00	  0.00	
     0.36000	    0.000	  0.00	  0.00	
     0.37000	    0.000	  0.00	  0.00	
     0.38000	    0.000	  0.00	  0.00	
     0.39000	    0.000	  0.00	  0.00	
     0.40000	    0.000	  0.00	  0.00	
     0.41000	    0.000	  0.00	  0.00	
     0.42000	    0.000	  0.00	  0.00	
     0.43000	    0.000	  0.00	  0.00	
     0.44000	    0.000	  0.00	  0.00	
     0.45000	    0.000	  0.00	  0.00	
     0.46000	    0.000	  0.00	  0.00	
     0.47000	    0.000	  0.00	  0.00	
     0.48000	    0.000	  0.00	  0.00	
     0.49000	    0.000	  0.00	  0.00	
     0.50000	    0.000	  0.00	  0.00	
     0.51000	    0.000	  0.00	  0.00	
     0.52000	    0.000	  0.00	  0.00	
     0.53000	    0.000	  0.00	  0.00	
     0.54000	    0.000	  0.00	  0.00	
     0.55000	    0.000	  0.00	  0.00	
     0.56000	    0.000	  0.00	  0.00	
     0.57000	    0.000	  0.00	  0.00	
     0.58000	    0.000	  0.00	  0.00	
     0.59000	    0.000	  0.00	  0.00	
     0.60000	    0.000	  0.00	  0.00	
     0.61000	    0.000	  0.00	  0.00	
     0.62000	    0.000	  0.00	  0.00	
     0.63000	    0.000	  0.00	  0.00	
     0.64000	    0.000	  0.00	  0.00	
     0.65000	    0.000	  0.00	  0.00	
     0.66000	    0.000	  0.00	  0.00	
     0.67000	    0.000	  0.00	  0.00	
     0.68000	    0.000	  0.00	  0.00	
     0.69000	    0.000	  0.00	  0.00	
     0.70000	    0.000	  0.00	  0.00	
     0.71000	    0.000	  0.00	  0.00	
     0.72000	    0.000	  0.00	  0.00	
     0.73000	    0.000	  0.00	  0.00	
     0.74000	    0.000	  0.00	  0.00	
     0.75000	    0.000	  0.00	  0.00	
     0.76000	    0.000	  0.00	  0.00	
     0.77000	    0.000	  0.00	  0.00	
     0.78000	    0.000	  0.00	  0.00	
     0.79000	    0.000	  0.00	  0.00	
     0.80000	    0.000	  0.00	  0.00	
     0.81000	    0.000	  0.00	  0.00	
     0.82000	    0.000	  0.00	  0.00	
     0.83000	    0.000	  0.00	  0.00	
     0.84000	    0.000	  0.00	  0.00	
     0.85000	    0.000	  0.00	  0.00	
     0.86000	    0.000	  0.00	  0.00	
     0.87000	    0.000	  0.00	  0.00	
     0.88000	    0.000	  0.00	  0.00	
     0.89000	    0.000	  0.00	  0.00	
     0.90000	    0.000	  0.00	  0.00	
     0.91000	    0.000	  0.00	  0.00	
     0.92000	    0.000	  0.00	  0.00	
     0.93000	    0.000	  0.00	  0.00	
     0.94000	    0.000	  0.00	  0.00	
     0.95000	    0.000	  0.00	  0.00	
     0.96000	    0.000	  0.00	  0.00	
     0.97000	    0.000	  0.00	  0.00	
     0.98000	    0.000	  0.00	  0.00	
     0.99000	    0.000	  0.00	  0.00	
     1.00000	    0.000	  0.00	  0.00	
     1.01000	    0.000	  0.00	  0.00	
     1.02000	    0.000	  0.00	  0.00	
     1.03000	    0.000	  0.00	  0.00	
     1.04000	    0.000	  0.00	  0.00	
     1.05000	    0.000	  0.00	  0.00	
     1.06000	    0.000	  0.00	  0.00	
     1.07000	    0.000	  0.00	  0.00	
     1.08000	    0.000	  0.00	  0.00	
     1.09000	    0.000	  0.00	  0.00	
     1.10000	    0.000	  0.00	  0.00	
     1.11000	    0.000	  0.00	  0.00	
     1.12000	    0.000	  0.00	  0.00	
     1.13000	    0.000	  0.00	  0.00	
     1.14000	    0.000	  0.00	  0.00	
     1.15000	    0.000	  0.00	  0.00	
     1.16000	    0.000	  0.00	  0.00	
     1.17000	    0.000	  0.00	  0.00	
     1.18000	    0.000	  0.00	  0.00	
     1.19000	    0.000	  0.00	  0.00	
     1.20000	    0.000	  0.00	  0.00	
     1.21000	    0.000	  0.00	  0.00	
     1.22000	    0.000	  0.00	  0.00	
     1.23000	    0.000	  0.00	  0.00	
     1.24000	    0.000	  0.00	  0.00	
     1.25000	    0.000	  0.00	  0.00	
     1.26000	    0.000	  0.00	  0.00	
     1.27000	    0.000	  0.00	  0.00	
     1.28000	    0.000	  0.00	  0.00	
     1.29000	    0.000	  0.00	  0.00	
     1.30000	    0.000	  0.00	  0.00	
     1.31000	    0.000	  0.00	  0.00	
     1.32000	    0.000	  0.00	  0.00	
     1.33000	    0.000	  0.00	  0.00	
     1.34000	    0.000	  0.00	  0.00	
     1.35000	    0.000	  0.00	  0.00	
     1.36000	    0.000	  0.00	  0.00	
     1.37000	    0.000	  0.00	  0.00	
     1.38000	    0.000	  0.00	  0.00	
     1.39000	    0.000	  0.00	  0.00	
     1.40000	    0.000	  0.00	  0.00	
     1.41000	    0.000	  0.00	  0.00	
     1.42000	    0.000	  0.00	  0.00	
     1.43000	    0.000	  0.00	  0.00	
     1.44000	    0.000	  0.00	  0.00	
     1.45000	    0.000	  0.00	  0.00	
     1.46000	    0.000	  0.00	  0.00	
     1.47000	    0.000	  0.00	  0.00	
     1.48000	    0.000	  0.00	  0.00	
     1.49000	    0.000	  0.00	  0.00	
     1.50000	    0.000	  0.00	  0.00	
     1.51000	    0.000	  0.00	  0.00	
     1.52000	    0.000	  0.00	  0.00	
     1.53000	    0.000	  0.00	  0.00	
     1.54000	    0.000	  0.00	  0.00	
     1.55000	    0.000	  0.00	  0.00	
     1.56000	    0.000	  0.00	  0.00	
     1.57000	    0.000	  0.00	  0.00	
     1.58000	    0.000	  0.00	  0.00	
     1.59000	    0.000	  0.00	  0.00	
     1.60000	    0.000	  0.00	  0.00	
     1.61000	    0.000	  0.00	  0.00	
     1.62000	    0.000	  0.00	  0.00	
     1.63000	    0.000	  0.00	  0.00	
     1.64000	    0.000	  0.00	  0.00	
     1.65000	    0.000	  0.00	  0.00	
     1.66000	    0.000	  0.00	  0.00	
     1.67000	    0.000	  0.00	  0.00	
     1.68000	    0.000	  0.00	  0.00	
     1.69000	    0.000	  0.00	  0.00	
     1.70000	    0.000	  0.00	  0.00	
     1.71000	    0.000	  0.00	  0.00	
     1.72000	    0.000	  0.00	  0.00	
     1.73000	    0.000	  0.00	  0.00	
     1.74000	    0.000	  0.00	  0.00	
     1.75000	    0.000	  0.00	  0.00	
     1.76000	    0.000	  0.00	  0.00	
     1.77000	    0.000	  0.00	  0.00	
     1.78000	    0.000	  0.00	  0.00	
     1.79000	    0.000	  0.00	  0.00	
     1.80000	    0.000	  0.00	  0.00	
     1.81000	    0.000	  0.00	  0.00	
     1.82000	    0.000	  0.00	  0.00	
     1.83000	    0.000	  0.00	  0.00	
     1.84000	    0.000	  0.00	  0.00	
     1.85000	    0.000	  0.00	  0.00	
     1.86000	    0.000	  0.00	  0.00	
     1.87000	    0.000	  0.00	  0.00	
     1.88000	    0.000	  0.00	  0.00	
     1.89000	    0.000	  0.00	  0.00	
     1.90000	    0.000	  0.00	  0.00	
     1.91000	    0.000	  0.00	  0.00	
     1.92000	    0.000	  0.00	  0.00	
     1.93000	    0.000	  0.00	  0.00	
     1.94000	    0.000	  0.00	  0.00	
     1.95000	    0.000	  0.00	  0.00	
     1.96000	    0.000	  0.00	  0.00	
     1.97000	    0.000	  0.00	  0.00	
     1.98000	    0.000	  0.00	  0.00	
     1.99000	    0.000	  0.00	  0.00	
     2.00000	    0.000	  0.00	  0.00	
     2.01000	    0.000	  0.00	  0.00	
     2.02000	    0.000	  0.00	  0.00	
     2.03000	    0.000	  0.00	  0.00	
     2.04000	    0.000	  0.00	  0.00	
     2.05000	    0.000	  0.00	  0.00	
     2.06000	    0.000	  0.00	  0.00	
     2.07000	    0.000	  0.00	  0.00	
     2.08000	    0.000	  0.00	  0.00	
     2.09000	    0.000	  0.00	  0.00	
     2.10000	    0.000	  0.00	  0.00	
     2.11000	    0.000	  0.00	  0.00	
     2.12000	    0.000	  0.00	  0.00	
     2.13000	    0.000	  0.00	  0.00	
     2.14000	    0.000	  0.00	  0.00	
     2.15000	    0.000	  0.00	  0.00	
     2.16000	    0.000	  0.00	  0.00	
     2.17000	    0.000	  0.00	  0.00	
     2.18000	    0.000	  0.00	  0.00	
     2.19000	    0.000	  0.00	  0.00	
     2.20000	    0.000	  0.00	  0.00	
     2.21000	    0.000	  0.00	  0.00	
     2.22000	    0.000	  0.00	  0.00	
     2.23000	    0.000	  0.00	  0.00	
     2.24000	    0.000	  0.00	  0.00	
     2.25000	    0.000	  0.00	  0.00	
     2.26000	    0.000	  0.00	  0.00	
     2.27000	    0.000	  0.00	  0.00	
     2.28000	    0.000	  0.00	  0.00	
     2.29000	    0.000	  0.00	  0.00	
     2.30000	    0.000	  0.00	  0.00	
     2.31000	    0.000	  0.00	  0.00	
     2.32000	    0.000	  0.00	  0.00	
     2.33000	    0.000	  0.00	  0.00	
     2.34000	    0.000	  0.00	  0.00	
     2.35000	    0.000	  0.00	  0.00	
     2.36000	    0.000	  0.00	  0.00	
     2.37000	    0.000	  0.00	  0.00	
     2.38000	    0.000	  0.00	  0.00	
     2.39000	    0.000	  0.00	  0.00	
     2.40000	    0.000	  0.00	  0.00	
     2.41000	    0.000	  0.00	  0.00	
     2.42000	    0.000	  0.00	  0.00	
     2.43000	    0.000	  0.00	  0.00	
     2.44000	    0.000	  0.00	  0.00	
     2.45000	    0.000	  0.00	  0.00	
     2.46000	    0.000	  0.00	  0.00	
     2.47000	    0.000	  0.00	  0.00	
     2.48000	    0.000	  0.00	  0.00	
     2.49000	    0.000	  0.00	  0.00	
     2.50000	    0.000	  0.00	  0.00	
     2.51000	    0.000	  0.00	  0.00	
     2.52000	    0.000	  0.00	  0.00	
     2.53000	    0.000	  0.00	  0.00	
     2.54000	    0.000	  0.00	  0.00	
     2.55000	    0.000	  0.00	  0.00	
     2.56000	    0.000	  0.00	  0.00	
     2.57000	    0.000	  0.00	  0.00	
     2.58000	    0.000	  0.00	  0.00	
     2.59000	    0.000	  0.00	  0.00	
     2.60000	    0.000	  0.00	  0.00	
     2.61000	    0.000	  0.00	  0.00	
     2.62000	    0.000	  0.00	  0.00	
     2.63000	    0.000	  0.00	  0.00	
     2.64000	    0.000	  0.00	  0.00	
     2.65000	    0.000	  0.00	  0.00	
     2.66000	    0.000	  0.00	  0.00	
     2.67000	    0.000	  0.00	  0.00	
     2.68000	    0.000	  0.00	  0.00	
     2.69000	    0.000	  0.00	  0.00	
     2.70000	    0.000	  0.00	  0.00	
     2.71000	    0.000	  0.00	  0.00	
     2.72000	    0.000	  0.00	  0.00	
     2.73000	    0.000	  0.00	  0.00	
     2.74000	    0.000	  0.00	  0.00	
     2.75000	    0.000	  0.00	  0.00	
     2.76000	    0.000	  0.00	  0.00	
     2.77000	    0.000	  0.00	  0.00	
     2.78000	    0.000	  0.00	  0.00	
     2.79000	    0.000	  0.00	  0.00	
     2.80000	    0.000	  0.00	  0.00	
     2.81000	    0.000	  0.00	  0.00	
     2.82000	    0.000	  0.00	  0.00	
     2.83000	    0.000	  0.00	  0.00	
     2.84000	    0.000	  0.00	  0.00	
     2.85000	    0.000	  0.00	  0.00	
     2.86000	    0.000	  0.00	  0.00	
     2.87000	    0.000	  0.00	  0.00	
     2.88000	    0.000	  0.00	  0.00	
     2.89000	    0.000	  0.00	  0.00	
     2.90000	    0.000	  0.00	  0.00	
     2.91000	    0.000	  0.00	  0.00	
     2.92000	    0.000	  0.00	  0.00	
     2.93000	    0.000	  0.00	  0.00	
     2.94000	    0.000	  0.00	  0.00	
     2.95000	    0.000	  0.00	  0.00	
     2.96000	    0.000	  0.00	  0.00	
     2.97000	    0.000	  0.00	  0.00	
     2.98000	    0.000	  0.00	  0.00	
     2.99000	    0.000	  0.00	  0.00	
     3.00000	    0.000	  0.00	  0.00	
     3.01000	    0.000	  0.00	  0.00	
     3.02000	    0.000	  0.00	  0.00	
     3.03000	    0.000	  0.00	  0.00	
     3.04000	    0.000	  0.00	  0.00	
     3.05000	    0.000	  0.00	  0.00	
     3.06000	    0.000	  0.00	  0.00	
     3.07000	    0.000	  0.00	  0.00	
     3.08000	    0.000	  0.00	  0.00	
     3.09000	    0.000	  0.00	  0.00	
     3.10000	    0.000	  0.00	  0.00	
     3.11000	    0.000	  0.00	  0.00	
     3.12000	    0.000	  0.00	  0.00	
     3.13000	    0.000	  0.00	  0.00	
     3.14000	    0.000	  0.00	  0.00	
     3.15000	    0.000	  0.00	  0.00	
     3.16000	    0.000	  0.00	  0.00	
     3.17000	    0.000	  0.00	  0.00	
     3.18000	    0.000	  0.00	  0.00	
     3.19000	    0.000	  0.00	  0.00	
     3.20000	    0.000	  0.00	  0.00	
     3.21000	    0.000	  0.00	  0.00	
     3.22000	    0.000	  0.00	  0.00	
     3.23000	    0.000	  0.00	  0.00	
     3.24000	    0.000	  0.00	  0.00	
     3.25000	    0.000	  0.00	  0.00	
     3.26000	    0.000	  0.00	  0.00	
     3.27000	    0.000	  0.00	  0.00	
     3.28000	    0.000	  0.00	  0.00	
     3.29000	    0.000	  0.00	  0.00	
     3.30000	    0.000	  0.00	  0.00	
     3.31000	    0.000	  0.00	  0.00	
     3.32000	    0.000	  0.00	  0.00	
     3.33000	    0.000	  0.00	  0.00	
     3.34000	    0.000	  0.00	  0.00	
     3.35000	    0.000	  0.00	  0.00	
     3.36000	    0.000	  0.00	  0.00	
     3.37000	    0.000	  0.00	  0.00	
     3.38000	    0.000	  0.00	  0.00	
     3.39000	    0.000	  0.00	  0.00	
     3.40000	    0.000	  0.00	  0.00	
     3.41000	    0.000	  0.00	  0.00	
     3.42000	    0.000	  0.00	  0.00	
     3.43000	    0.000	  0.00	  0.00	
     3.44000	    0.000	  0.00	  0.00	
     3.45000	    0.000	  0.00	  0.00	
     3.46000	    0.000	  0.00	  0.00	
     3.47000	    2.000	 45.00	 95.00	
     3.48000	    2.500	 45.00	 95.00	
     3.49000	    2.500	 45.00	 95.00	
     3.50000	    3.000	 45.00	 95.00	
     3.51000	    3.000	 45.00	 95.00	
     3.52000	    5.000	 41.00	 83.00	
     3.53000	    6.000	 40.83	 82.50	
     3.54000	    6.500	 41.15	 83.46	
     3.55000	    7.000	 40.71	 82.14	
     3.56000	    7.000	 40.71	 82.14	
     3.57000	    9.000	 41.67	 82.78	
     3.58000	   10.000	 41.50	 82.00	
     3.59000	   10.000	 42.00	 83.50	
     3.60000	   11.000	 42.27	 84.09	
     3.61000	   11.000	 42.27	 84.09	
     3.62000	   11.000	 42.27	 84.09	
     3.63000	   11.500	 42.39	 84.13	
     3.64000	   12.000	 42.50	 84.17	
     3.65000	   11.000	 42.73	 84.55	
     3.66000	   12.000	 42.92	 85.00	
     3.67000	   12.000	 43.33	 85.83	
     3.68000	   10.000	 45.00	 90.00	
     3.69000	   10.000	 45.00	 90.00	
     3.70000	   10.500	 45.00	 89.76	
     3.71000	   10.500	 45.00	 89.76	
     3.72000	   10.500	 45.00	 89.76	
     3.73000	   10.500	 45.00	 89.76	
     3.74000	   10.500	 45.00	 89.76	
     3.75000	   11.000	 45.00	 89.55	
     3.76000	   11.000	 45.00	 89.55	
     3.77000	   11.000	 45.00	 89.55	
     3.78000	   11.000	 45.00	 89.55	
     3.79000	   11.000	 45.00	 89.09	
     3.80000	   11.500	 45.00	 88.91	
     3.81000	   11.500	 45.00	 88.91	
     3.82000	   11.500	 45.00	 88.91	
     3.83000	   11.500	 45.00	 88.91	
     3.84000	   11.500	 45.00	 88.91	
     3.85000	   11.500	 45.00	 88.91	
     3.86000	   11.500	 45.00	 88.91	
     3.87000	   11.500	 45.00	 88.91	
     3.88000	   11.000	 45.00	 88.64	
     3.89000	   11.000	 45.00	 88.64	
     3.90000	   11.000	 45.00	 88.64	
     3.91000	   11.000	 45.00	 88.64	
     3.92000	   11.000	 45.00	 88.64	
     3.93000	   11.000	 45.00	 88.64	
     3.94000	   11.500	 45.00	 88.48	
     3.95000	   11.500	 45.00	 88.48	
     3.96000	   11.500	 45.00	 88.48	
     3.97000	   12.000	 45.00	 88.33	
     3.98000	   12.000	 45.00	 88.33	
     3.99000	   12.000	 45.00	 88.33	
     4.00000	   12.500	 45.00	 88.20	
     4.01000	   12.500	 45.00	 88.20	
     4.02000	   12.500	 45.00	 88.20	
     4.03000	   12.500	 45.00	 88.20	
     4.04000	   12.500	 45.00	 88.20	
     4.05000	   12.000	 45.00	 87.92	
     4.06000	   12.000	 45.00	 87.92	
     4.07000	   12.000	 45.00	 87.92	
     4.08000	   12.000	 45.00	 87.92	
     4.09000	   12.000	 45.00	 87.92	
     4.10000	   11.500	 45.00	 88.04	
     4.11000	   11.500	 45.00	 88.04	
     4.12000	   11.500	 45.00	 88.04	
     4.13000	   11.500	 45.00	 88.04	
     4.14000	   11.000	 45.00	 88.18	
     4.15000	   10.000	 45.00	 88.00	
     4.16000	   10.000	 45.00	 88.00	
     4.17000	   12.000	 43.33	 82.50	
     4.18000	   10.500	 43.10	 81.67	
     4.19000	   11.000	 42.73	 80.45	
     4.20000	   10.500	 42.14	 78.81	
     4.21000	   11.500	 38.91	 73.70	
     4.22000	    9.000	 37.22	 68.33	
     4.23000	   10.500	 36.43	 66.90	
     4.24000	   10.500	 35.48	 65.48	
     4.25000	   10.500	 35.00	 64.05	
     4.26000	   10.500	 34.52	 63.10	
     4.27000	    8.500	 32.06	 57.94	
     4.28000	   11.500	 31.09	 59.35	
     4.29000	   11.500	 31.09	 59.35	
     4.30000	   11.500	 31.09	 59.35	
     4.31000	   12.000	 30.83	 59.17	
     4.32000	   12.500	 31.00	 59.00	
     4.33000	   12.500	 31.00	 59.00	
     4.34000	   13.000	 31.15	 59.23	
     4.35000	   13.000	 31.15	 58.85	
     4.36000	   13.500	 31.30	 59.07	
     4.37000	   13.500	 31.30	 59.07	
     4.38000	   13.500	 31.30	 59.07	
     4.39000	   14.000	 31.07	 59.29	
     4.40000	   14.000	 31.07	 59.29	
     4.41000	   14.000	 31.07	 59.29	
     4.42000	   14.000	 31.07	 59.29	
     4.43000	   16.000	 32.81	 63.75	
     4.44000	   16.000	 33.44	 64.69	
     4.45000	   15.000	 33.33	 65.00	
     4.46000	   14.000	 35.36	 67.14	
     4.47000	   13.500	 36.11	 69.07	
     4.48000	   15.000	 38.67	 74.67	
     4.49000	   10.500	 42.14	 81.19	
     4.50000	   10.500	 42.62	 82.62	
     4.51000	    8.500	 45.00	 90.88	
     4.52000	    9.000	 45.00	 90.56	
     4.53000	    9.000	 45.00	 90.56	
     4.54000	    9.000	 45.00	 90.56	
     4.55000	   10.000	 45.00	 90.50	
     4.56000	   10.500	 45.00	 90.71	
     4.57000	   10.500	 45.00	 90.71	
     4.58000	   10.500	 45.00	 90.71	
     4.59000	   10.500	 45.00	 90.71	
     4.60000	   11.000	 45.00	 90.91	
     4.61000	   11.000	 45.00	 90.91	
     4.62000	   12.000	 45.00	 90.83	
     4.63000	   12.000	 45.00	 90.83	
     4.64000	   12.000	 45.00	 90.83	
     4.65000	   12.500	 45.00	 90.60	
     4.66000	   12.500	 45.00	 90.60	
     4.67000	   12.500	 45.00	 90.60	
     4.68000	   12.500	 45.00	 90.60	
     4.69000	   12.500	 45.00	 90.60	
     4.70000	   12.000	 45.00	 90.42	
     4.71000	   11.500	 45.00	 90.65	
     4.72000	   11.500	 45.00	 90.65	
     4.73000	   10.500	 45.00	 90.71	
     4.74000	   10.000	 45.00	 91.00	
     4.75000	   12.000	 46.67	 90.00	
     4.76000	   11.500	 46.74	 90.22	
     4.77000	   13.000	 49.62	 89.23	
     4.78000	   12.500	 50.20	 89.00	
     4.79000	   13.500	 50.93	 88.70	
     4.80000	   13.000	 51.15	 88.85	
     4.81000	   13.000	 51.54	 88.46	
     4.82000	   12.500	 52.60	 88.20	
     4.83000	   12.000	 52.08	 88.33	
     4.84000	   12.000	 52.92	 87.92	
     4.85000	   10.000	 55.00	 88.00	
     4.86000	   10.500	 55.00	 87.86	
     4.87000	   10.500	 55.00	 87.86	
     4.88000	   11.000	 55.91	 87.27	
     4.89000	   11.000	 55.91	 87.27	
     4.90000	   11.500	 55.87	 87.17	
     4.91000	   11.500	 55.87	 87.17	
     4.92000	   11.000	 55.91	 87.27	
     4.93000	   10.500	 55.95	 87.38	
     4.94000	   10.000	 55.50	 87.50	
     4.95000	    9.000	 55.00	 87.78	
     4.96000	    8.000	 54.38	 88.13	
     4.97000	    8.500	 54.41	 87.94	
     4.98000	    6.500	 51.15	 88.85	
     4.99000	    6.500	 51.15	 88.85	
     5.00000	    6.500	 50.38	 89.62	
     5.01000	    6.500	 50.38	 89.62	
     5.02000	    6.000	 50.00	 90.00	
     5.03000	    6.000	 50.00	 90.00	
     5.04000	    6.000	 50.00	 90.00	
     5.05000	    6.500	 50.38	 89.62	
     5.06000	    7.000	 50.00	 90.00	
     5.07000	    9.000	 51.11	 86.67	
     5.08000	    9.000	 51.67	 86.11	
     5.09000	   10.000	 52.00	 85.50	
     5.10000	   10.500	 52.14	 85.48	
     5.11000	   12.000	 52.50	 85.00	
     5.12000	   12.500	 53.00	 84.20	
     5.13000	   13.000	 53.08	 84.23	
     5.14000	   13.500	 53.15	 83.89	
     5.15000	   14.000	 53.57	 83.21	
     5.16000	   12.000	 55.00	 81.25	
     5.17000	   12.500	 55.00	 81.40	
     5.18000	   13.000	 55.00	 81.15	
     5.19000	   13.500	 55.00	 81.30	
     5.20000	   13.500	 55.00	 80.93	
     5.21000	   14.000	 55.00	 81.07	
     5.22000	   14.000	 55.00	 81.07	
     5.23000	   14.000	 55.00	 81.07	
     5.24000	   14.000	 55.00	 81.07	
     5.25000	   14.500	 55.00	 80.86	
     5.26000	   14.500	 55.00	 80.86	
     5.27000	   15.000	 55.00	 80.67	
     5.28000	   15.000	 55.00	 80.67	
     5.29000	   15.000	 55.00	 80.67	
     5.30000	   14.500	 55.00	 80.52	
     5.31000	   14.000	 55.00	 80.36	
     5.32000	   13.000	 55.00	 80.38	
     5.33000	   15.000	 55.00	 82.33	
     5.34000	   13.500	 55.00	 82.41	
     5.35000	   13.000	 55.00	 83.46	
     5.36000	   12.000	 55.00	 84.17	
     5.37000	   11.500	 55.00	 85.00	
     5.38000	   10.500	 55.00	 86.43	
     5.39000	    9.500	 55.00	 87.11	
     5.40000	    7.500	 55.00	 91.00	
     5.41000	    7.000	 55.00	 92.14	
     5.42000	    7.000	 55.00	 92.14	
     5.43000	    7.000	 55.00	 92.14	
     5.44000	    7.500	 55.00	 92.33	
     5.45000	    8.000	 55.00	 92.50	
     5.46000	    8.500	 55.00	 92.65	
     5.47000	   11.000	 55.00	 95.00	
     5.48000	    9.500	 55.00	 92.89	
     5.49000	    9.500	 55.00	 92.89	
     5.50000	   10.000	 55.00	 93.00	
     5.51000	   10.500	 55.00	 93.10	
     5.52000	   12.500	 55.00	 95.00	
     5.53000	   13.000	 55.00	 94.62	
     5.54000	   12.500	 53.40	 93.40	
     5.55000	   13.500	 53.52	 93.15	
     5.56000	   13.500	 53.52	 93.15	
     5.57000	   14.000	 53.57	 93.21	
     5.58000	   14.000	 53.57	 93.21	
     5.59000	   14.500	 53.62	 92.93	
     5.60000	   15.000	 53.67	 93.00	
     5.61000	   15.000	 53.67	 93.00	
     5.62000	   15.000	 53.67	 93.00	
     5.63000	   16.000	 53.75	 92.81	
     5.64000	   16.500	 53.48	 92.88	
     5.65000	   15.500	 53.39	 93.06	
     5.66000	   16.000	 53.44	 92.81	
     5.67000	   16.000	 53.44	 92.81	
     5.68000	   15.500	 53.39	 92.74	
     5.69000	   15.500	 53.39	 92.74	
     5.70000	   16.000	 53.44	 92.81	
     5.71000	   16.500	 53.48	 92.88	
     5.72000	   16.500	 53.48	 92.88	
     5.73000	   16.500	 53.48	 92.88	
     5.74000	   17.000	 53.24	 92.94	
     5.75000	   17.000	 53.24	 92.94	
     5.76000	   16.500	 52.88	 92.88	
     5.77000	   16.000	 52.50	 93.13	
     5.78000	   17.500	 51.57	 94.43	
     5.79000	   18.000	 51.39	 94.72	
     5.80000	   18.000	 51.39	 94.72	
     5.81000	   19.000	 51.32	 94.74	
     5.82000	   19.000	 51.58	 94.74	
     5.83000	   20.000	 51.75	 94.50	
     5.84000	   20.000	 52.00	 94.25	
     5.85000	   21.500	 52.21	 94.07	
     5.86000	   21.500	 52.21	 94.07	
     5.87000	   22.500	 52.33	 92.11	
     5.88000	   20.500	 53.05	 92.80	
     5.89000	   20.500	 53.05	 92.80	
     5.90000	   21.000	 53.10	 92.62	
     5.91000	   22.000	 52.50	 91.82	
     5.92000	   20.500	 53.29	 92.32	
     5.93000	   22.500	 52.56	 91.67	
     5.94000	   22.500	 52.78	 91.44	
     5.95000	   22.500	 52.78	 91.44	
     5.96000	   23.000	 52.83	 91.30	
     5.97000	   22.500	 52.78	 91.00	
     5.98000	   23.500	 52.87	 90.53	
     5.99000	   23.500	 52.87	 90.32	
     6.00000	   24.000	 52.92	 90.00	
     6.01000	   24.000	 52.92	 90.00	
     6.02000	   24.500	 52.96	 89.90	
     6.03000	   24.500	 52.96	 89.69	
     6.04000	   24.500	 52.96	 89.69	
     6.05000	   24.500	 52.96	 89.69	
     6.06000	   25.000	 52.80	 89.60	
     6.07000	   25.000	 53.00	 89.60	
     6.08000	   25.500	 52.84	 89.51	
     6.09000	   26.000	 52.88	 89.62	
     6.10000	   26.000	 52.69	 89.81	
     6.11000	   26.000	 52.69	 89.81	
     6.12000	   26.000	 52.69	 89.81	
     6.13000	   25.500	 52.65	 89.90	
     6.14000	   25.000	 52.60	 90.00	
     6.15000	   25.000	 52.60	 90.00	
     6.16000	   24.500	 52.35	 90.31	
     6.17000	   23.000	 52.39	 90.43	
     6.18000	   21.500	 52.21	 90.58	
     6.19000	   21.000	 52.38	 90.48	
     6.20000	   20.500	 52.32	 90.61	
     6.21000	   20.000	 52.25	 90.75	
     6.22000	   19.500	 52.18	 91.15	
     6.23000	   19.000	 52.11	 91.32	
     6.24000	   18.000	 51.94	 91.39	
     6.25000	   17.500	 52.14	 91.29	
     6.26000	   15.500	 53.06	 92.10	
     6.27000	   14.500	 52.93	 92.24	
     6.28000	   14.500	 52.93	 92.24	
     6.29000	   14.000	 52.86	 92.50	
     6.30000	   16.000	 51.88	 94.06	
     6.31000	   15.500	 51.77	 94.03	
     6.32000	   15.500	 51.77	 94.03	
     6.33000	   15.000	 51.67	 94.00	
     6.34000	   14.500	 51.55	 94.31	
     6.35000	   14.500	 51.55	 94.31	
     6.36000	   14.000	 51.79	 94.29	
     6.37000	   12.000	 52.92	 92.50	
     6.38000	   11.500	 52.83	 92.83	
     6.39000	   11.500	 52.83	 92.83	
     6.40000	   10.500	 52.62	 93.10	
     6.41000	   10.500	 52.62	 93.10	
     6.42000	    9.500	 52.89	 92.89	
     6.43000	    9.000	 52.78	 92.78	
     6.44000	    9.000	 52.78	 92.78	
     6.45000	    8.000	 52.50	 92.50	
     6.46000	    4.000	 55.00	 95.00	
     6.47000	    4.000	 55.00	 95.00	
     6.48000	    3.500	 55.00	 95.00	
     6.49000	    3.000	 55.00	 95.00	
     6.50000	    3.000	 55.00	 95.00	
     6.51000	    3.000	 55.00	 95.00	
     6.52000	    2.500	 55.00	 95.00	
     6.53000	    2.000	 55.00	 95.00	
     6.54000	    0.000	  0.00	  0.00	
     6.55000	    4.000	 60.00	 85.00	
     6.56000	    6.000	 61.67	 88.33	
     6.57000	    6.000	 61.67	 88.33	
     6.58000	    6.000	 61.67	 88.33	
     6.59000	    6.000	 61.67	 88.33	
     6.60000	    6.000	 61.67	 88.33	
     6.61000	    6.000	 61.67	 88.33	
     6.62000	    6.000	 61.67	 88.33	
     6.63000	    6.000	 61.67	 88.33	
     6.64000	    6.000	 61.67	 88.33	
     6.65000	    6.000	 61.67	 88.33	
     6.66000	    6.000	 61.67	 88.33	
     6.67000	    2.000	 55.00	 85.00	
     6.68000	    4.000	 60.00	 90.00	
     6.69000	    2.000	 55.00	 85.00	
     6.70000	    2.000	 55.00	 85.00	
     6.71000	    2.000	 55.00	 85.00	
     6.72000	    2.000	 55.00	 85.00	
     6.73000	    2.000	 55.00	 85.00	
     6.74000	    2.000	 55.00	 85.00	
     6.75000	    2.000	 55.00	 85.00	
     6.76000	    0.000	  0.00	  0.00	
     6.77000	    2.500	 45.00	115.00	
     6.78000	    3.000	 45.00	115.00	
     6.79000	    3.000	 45.00	115.00	
     6.80000	    5.000	 45.00	111.00	
     6.81000	    7.000	 47.86	112.14	
     6.82000	    7.500	 47.67	111.67	
     6.83000	    8.000	 48.13	111.88	
     6.84000	    8.500	 48.53	112.06	
     6.85000	   10.500	 49.76	110.71	
     6.86000	   10.500	 49.76	110.71	
     6.87000	   11.500	 49.78	110.22	
     6.88000	   12.500	 49.40	110.20	
     6.89000	   12.500	 49.40	110.20	
     6.90000	   13.000	 49.23	110.38	
     6.91000	   13.000	 49.23	110.38	
     6.92000	   13.000	 49.23	110.38	
     6.93000	   12.500	 49.00	110.60	
     6.94000	   12.500	 49.00	110.60	
     6.95000	   12.500	 49.00	110.60	
     6.96000	   12.500	 49.00	110.60	
     6.97000	   12.500	 49.00	110.60	
     6.98000	   12.500	 49.00	110.60	
     6.99000	   12.500	 49.00	110.60	
     7.00000	   12.500	 49.00	110.60	
     7.01000	   12.500	 49.00	110.60	
     7.02000	   12.500	 49.00	110.60	
     7.03000	   12.500	 49.00	110.60	
     7.04000	   12.500	 49.00	110.60	
     7.05000	   12.500	 49.00	110.60	
     7.06000	   12.500	 49.00	110.60	
     7.07000	   10.000	 47.50	111.50	
     7.08000	    9.500	 47.63	111.84	
     7.09000	   10.000	 47.50	111.50	
     7.10000	    9.500	 47.63	111.84	
     7.11000	   10.000	 47.50	111.50	
     7.12000	   10.000	 47.50	111.50	
     7.13000	   10.000	 47.50	111.50	
     7.14000	   10.000	 47.50	111.50	
     7.15000	   10.000	 47.50	111.50	
     7.16000	   10.000	 47.50	111.50	
     7.17000	   10.000	 47.50	111.50	
     7.18000	   10.000	 47.50	111.50	
     7.19000	    9.500	 47.63	111.84	
     7.20000	    8.500	 47.35	111.47	
     7.21000	    8.500	 47.35	111.47	
     7.22000	    7.500	 47.67	111.67	
     7.23000	    5.500	 45.00	110.45	
     7.24000	    5.000	 45.00	110.00	
     7.25000	    4.000	 45.00	110.00	
     7.26000	    2.000	 45.00	105.00	
     7.27000	    0.000	  0.00	  0.00	
     7.28000	    0.000	  0.00	  0.00	
     7.29000	    0.000	  0.00	  0.00	
     7.30000	    0.000	  0.00	  0.00	
     7.31000	    0.000	  0.00	  0.00	
     7.32000	    0.000	  0.00	  0.00	
     7.33000	    0.000	  0.00	  0.00	
     7.34000	    0.000	  0.00	  0.00	
     7.35000	    2.000	 65.00	 95.00	
     7.36000	    2.000	 65.00	 95.00	
     7.37000	    0.000	  0.00	  0.00	
     7.38000	    4.000	 70.00	100.00	
     7.39000	    4.000	 70.00	100.00	
     7.40000	    4.000	 70.00	100.00	
     7.41000	    4.000	 70.00	100.00	
     7.42000	    4.000	 70.00	100.00	
     7.43000	    4.000	 70.00	100.00	
     7.44000	    2.000	 75.00	105.00	
     7.45000	    4.000	 75.00	110.00	
     7.46000	    4.000	 75.00	110.00	
     7.47000	    4.000	 75.00	110.00	
     7.48000	    4.000	 75.00	110.00	
     7.49000	    4.000	 75.00	110.00	
     7.50000	    4.000	 75.00	110.00	
     7.51000	    4.000	 75.00	110.00	
     7.52000	    8.000	 75.00	107.50	
     7.53000	    6.000	 71.67	108.33	
     7.54000	    6.000	 71.67	108.33	
     7.55000	    8.500	 75.00	107.35	
     7.56000	    8.500	 75.00	107.94	
     7.57000	    8.500	 75.00	107.94	
     7.58000	    7.000	 72.14	108.57	
     7.59000	    9.000	 75.00	107.78	
     7.60000	    9.000	 75.00	107.78	
     7.61000	    9.000	 75.00	107.78	
     7.62000	    9.000	 75.00	107.78	
     7.63000	    7.000	 72.14	108.57	
     7.64000	    9.000	 75.00	107.78	
     7.65000	    7.000	 72.14	108.57	
     7.66000	   11.000	 73.18	105.45	
     7.67000	    9.500	 70.26	105.53	
     7.68000	   11.000	 73.18	105.45	
     7.69000	   11.000	 69.55	107.27	
     7.70000	    9.500	 70.26	105.53	
     7.71000	   13.500	 71.67	106.85	
     7.72000	    9.500	 70.26	105.53	
     7.73000	   11.500	 72.83	105.43	
     7.74000	   11.500	 69.35	107.17	
     7.75000	   11.500	 69.35	107.17	
     7.76000	   13.500	 71.67	106.85	
     7.77000	   13.500	 71.67	106.85	
     7.78000	   11.500	 69.35	107.17	
     7.79000	   13.500	 71.67	106.85	
     7.80000	   11.500	 69.35	107.17	
     7.81000	   13.500	 71.67	106.85	
     7.82000	   13.500	 71.67	106.85	
     7.83000	   13.500	 71.67	106.85	
     7.84000	   13.500	 71.67	106.85	
     7.85000	   13.500	 71.67	106.85	
     7.86000	   13.500	 71.67	106.85	
     7.87000	   13.500	 71.67	106.85	
     7.88000	   12.000	 72.92	109.17	
     7.89000	   11.500	 72.83	108.91	
     7.90000	   12.000	 72.92	109.17	
     7.91000	   16.000	 73.44	108.13	
     7.92000	   16.000	 73.44	108.13	
     7.93000	   14.000	 74.64	110.00	
     7.94000	   15.000	 75.00	110.00	
     7.95000	   14.500	 75.00	109.83	
     7.96000	   14.500	 75.00	109.83	
     7.97000	   14.500	 75.00	109.83	
     7.98000	   14.500	 75.00	109.83	
     7.99000	   16.500	 74.70	111.97	
     8.00000	   16.500	 74.70	111.97	
     8.01000	   16.000	 74.69	111.88	
     8.02000	   14.000	 74.64	110.00	
     8.03000	   16.000	 74.69	111.88	
     8.04000	   14.000	 74.64	110.00	
     8.05000	   16.000	 74.69	111.88	
     8.06000	   16.000	 74.69	111.88	
     8.07000	   16.000	 74.69	111.88	
     8.08000	   16.500	 74.70	111.97	
     8.09000	   16.500	 74.70	111.97	
     8.10000	   16.500	 74.70	111.97	
     8.11000	   16.500	 74.70	111.97	
     8.12000	   16.500	 75.00	111.97	
     8.13000	   16.000	 74.69	111.88	
     8.14000	   16.000	 74.69	111.88	
     8.15000	   16.000	 74.69	111.88	
     8.16000	   16.000	 74.69	111.88	
     8.17000	   16.000	 74.69	111.88	
     8.18000	   16.000	 74.69	111.88	
     8.19000	   16.000	 74.69	111.88	
     8.20000	   16.000	 74.69	111.88	
     8.21000	   14.000	 74.64	110.00	
     8.22000	   14.000	 74.64	110.00	
     8.23000	   12.000	 72.92	110.83	
     8.24000	   12.000	 72.92	109.17	
     8.25000	   10.000	 70.50	110.00	
     8.26000	   12.000	 72.92	109.17	
     8.27000	   12.000	 72.92	109.17	
     8.28000	   12.000	 72.92	109.17	
     8.29000	   12.000	 67.92	109.17	
     8.30000	   12.000	 72.92	109.17	
     8.31000	   14.000	 70.36	108.57	
     8.32000	   10.000	 70.50	110.00	
     8.33000	   11.500	 69.35	107.17	
     8.34000	   13.500	 67.22	106.85	
     8.35000	   13.500	 67.22	106.85	
     8.36000	   13.500	 67.22	106.85	
     8.37000	   13.500	 67.22	106.85	
     8.38000	   13.500	 67.22	106.85	
     8.39000	   15.500	 65.65	105.32	
     8.40000	   15.500	 65.65	105.32	
     8.41000	   15.500	 65.65	105.32	
     8.42000	   15.000	 65.33	105.00	
     8.43000	   15.000	 65.33	105.00	
     8.44000	   15.000	 64.67	105.00	
     8.45000	   16.500	 62.58	103.79	
     8.46000	   14.500	 60.86	102.24	
     8.47000	   15.000	 60.67	102.33	
     8.48000	   15.000	 60.67	102.00	
     8.49000	   13.500	 59.81	100.19	
     8.50000	   11.000	 57.27	 99.09	
     8.51000	   13.000	 60.00	100.00	
     8.52000	   13.500	 56.85	 97.22	
     8.53000	   13.000	 56.92	 96.92	
     8.54000	   13.000	 56.92	 96.92	
     8.55000	   13.500	 56.85	 97.22	
     8.56000	   15.500	 55.00	 97.90	
     8.57000	   13.500	 56.85	 97.22	
     8.58000	   16.000	 55.00	 98.13	
     8.59000	   16.500	 55.00	 98.03	
     8.60000	   16.500	 55.00	 98.03	
     8.61000	   16.500	 55.00	 98.03	
     8.62000	   16.500	 55.00	 98.03	
     8.63000	   18.500	 56.08	 93.38	
     8.64000	   18.500	 56.08	 93.38	
     8.65000	   18.500	 56.08	 93.38	
     8.66000	   18.000	 56.11	 93.06	
     8.67000	   18.500	 56.08	 93.38	
     8.68000	   18.000	 56.11	 93.06	
     8.69000	   18.500	 56.08	 93.38	
     8.70000	   18.000	 56.11	 93.06	
     8.71000	   16.500	 55.00	 98.03	
     8.72000	   18.000	 56.11	 93.06	
     8.73000	   16.000	 54.69	 97.81	
     8.74000	   16.000	 54.69	 97.81	
     8.75000	   16.000	 54.69	 97.81	
     8.76000	   20.000	 53.75	 93.25	
     8.77000	   15.500	 54.68	 97.58	
     8.78000	   17.500	 52.43	 97.29	
     8.79000	   15.500	 53.39	 96.29	
     8.80000	   15.500	 50.81	 96.29	
     8.81000	   16.000	 50.94	 96.56	
     8.82000	   16.000	 50.31	 96.25	
     8.83000	   16.000	 50.31	 96.25	
     8.84000	   16.000	 50.31	 96.25	
     8.85000	   18.000	 51.94	 91.67	
     8.86000	   13.500	 47.96	 96.48	
     8.87000	   14.000	 48.21	 96.43	
     8.88000	   11.500	 46.74	 95.00	
     8.89000	   11.500	 46.74	 95.00	
     8.90000	   11.500	 46.74	 95.00	
     8.91000	    9.500	 47.11	 92.89	
     8.92000	    9.500	 47.11	 92.89	
     8.93000	    9.500	 47.11	 92.89	
     8.94000	    9.500	 47.11	 92.89	
     8.95000	    9.500	 47.11	 92.89	
     8.96000	    9.500	 47.11	 92.89	
     8.97000	   10.000	 47.50	 93.00	
     8.98000	   11.500	 46.74	 95.00	
     8.99000	   12.000	 50.42	 93.33	
     9.00000	   13.000	 51.54	 95.00	
     9.01000	   15.000	 50.67	 96.33	
     9.02000	   15.000	 50.67	 96.33	
     9.03000	   12.500	 56.60	 96.60	
     9.04000	   12.500	 56.60	 96.60	
     9.05000	   13.000	 56.92	 96.92	
     9.06000	   13.000	 56.92	 96.92	
     9.07000	   11.000	 57.27	 99.09	
     9.08000	   15.000	 58.00	 91.33	
     9.09000	   12.500	 58.60	101.80	
     9.10000	   12.500	 58.60	101.80	
     9.11000	   10.500	 61.19	103.10	
     9.12000	   12.500	 61.80	 95.40	
     9.13000	    8.500	 60.29	105.00	
     9.14000	   10.500	 63.10	106.90	
     9.15000	    6.500	 61.92	108.08	
     9.16000	   10.500	 63.10	106.90	
     9.17000	    8.500	 65.00	109.71	
     9.18000	    8.500	 65.00	109.71	
     9.19000	    8.500	 65.00	109.71	
     9.20000	    8.500	 65.00	109.71	
     9.21000	    8.500	 65.00	109.71	
     9.22000	    8.500	 65.00	109.71	
     9.23000	    8.500	 65.00	109.71	
     9.24000	    8.500	 65.00	109.71	
     9.25000	    8.500	 65.00	109.71	
     9.26000	    8.500	 65.00	109.71	
     9.27000	    8.500	 65.00	109.71	
     9.28000	    8.500	 65.00	109.71	
     9.29000	    8.500	 65.00	109.71	
     9.30000	    8.500	 65.00	109.71	
     9.31000	   11.000	 67.27	109.09	
     9.32000	    8.500	 65.00	109.71	
     9.33000	    9.000	 65.56	110.00	
     9.34000	   11.000	 67.27	109.09	
     9.35000	    9.000	 65.56	110.00	
     9.36000	    8.500	 65.00	109.71	
     9.37000	    8.500	 65.00	109.71	
     9.38000	    8.500	 65.00	109.71	
     9.39000	    8.500	 65.00	109.71	
     9.40000	    8.500	 65.00	109.71	
     9.41000	    8.500	 65.00	109.71	
     9.42000	    8.500	 65.00	109.71	
     9.43000	    8.500	 65.00	109.71	
     9.44000	    8.500	 65.00	109.71	
     9.45000	    8.500	 65.00	109.71	
     9.46000	    9.000	 64.44	109.44	
     9.47000	    9.000	 64.44	109.44	
     9.48000	   11.000	 60.91	108.64	
     9.49000	   11.000	 60.91	108.64	
     9.50000	   13.000	 60.00	105.00	
     9.51000	   11.000	 60.91	108.64	
     9.52000	    9.000	 64.44	109.44	
     9.53000	   11.000	 60.91	106.82	
     9.54000	   11.000	 60.91	108.64	
     9.55000	   13.000	 56.92	100.38	
     9.56000	   13.000	 56.92	101.92	
     9.57000	   19.000	 57.37	100.79	
     9.58000	   13.000	 56.92	101.92	
     9.59000	   13.000	 56.92	101.92	
     9.60000	   15.000	 59.33	102.33	
     9.61000	   13.000	 56.92	101.92	
     9.62000	   17.500	 58.14	104.14	
     9.63000	   17.500	 57.00	104.14	
     9.64000	   17.000	 55.29	100.29	
     9.65000	   17.500	 57.00	104.14	
     9.66000	   17.500	 57.86	104.14	
     9.67000	   17.500	 57.00	104.14	
     9.68000	   17.000	 55.29	100.29	
     9.69000	   17.500	 57.00	104.14	
     9.70000	   19.500	 56.28	102.95	
     9.71000	   20.000	 57.00	103.50	
     9.72000	   20.000	 56.75	103.25	
     9.73000	   20.500	 56.95	103.54	
     9.74000	   19.500	 56.28	102.95	
     9.75000	   21.000	 56.19	104.05	
     9.76000	   21.500	 56.16	104.07	
     9.77000	   22.000	 56.36	104.32	
     9.78000	   21.500	 56.16	104.07	
     9.79000	   22.000	 56.36	104.32	
     9.80000	   20.000	 56.50	105.25	
     9.81000	   21.500	 56.16	104.07	
     9.82000	   20.500	 56.95	103.54	
     9.83000	   21.500	 56.16	104.07	
     9.84000	   20.000	 56.50	105.25	
     9.85000	   21.500	 56.16	104.07	
     9.86000	   22.500	 55.00	102.78	
     9.87000	   22.000	 56.36	104.32	
     9.88000	   21.500	 56.16	104.07	
     9.89000	   24.500	 55.00	103.78	
     9.90000	   22.000	 56.59	104.32	
     9.91000	   24.500	 55.00	103.78	
     9.92000	   19.500	 56.28	102.95	
     9.93000	   20.000	 56.50	103.25	
     9.94000	   20.000	 56.50	103.25	
     9.95000	   25.000	 54.80	103.80	
     9.96000	   27.000	 53.33	100.19	
     9.97000	   26.500	 53.49	100.09	
     9.98000	   23.000	 56.52	104.57	
     9.99000	   26.500	 53.11	 99.91	
    10.00000	   25.000	 54.80	100.60	
    10.01000	   27.000	 53.33	100.19	
    10.02000	   27.000	 53.33	100.19	
    10.03000	   25.500	 54.41	 99.90	
    10.04000	   27.500	 56.45	101.00	
    10.05000	   29.000	 54.83	100.52	
    10.06000	   29.000	 54.83	100.52	
    10.07000	   24.500	 55.00	100.51	
    10.08000	   25.500	 54.41	 99.90	
    10.09000	   28.000	 56.07	100.36	
    10.10000	   30.000	 54.67	100.00	
    10.11000	   29.000	 54.66	 99.83	
    10.12000	   30.000	 54.67	100.00	
    10.13000	   28.500	 56.23	103.60	
    10.14000	   30.000	 54.67	100.00	
    10.15000	   29.500	 54.83	 99.92	
    10.16000	   28.000	 56.07	100.36	
    10.17000	   28.500	 56.23	100.79	
    10.18000	   30.000	 54.67	100.00	
    10.19000	   30.500	 54.84	100.41	
    10.20000	   28.500	 56.23	100.79	
    10.21000	   30.500	 55.49	 98.44	
    10.22000	   29.500	 55.51	 97.88	
    10.23000	   28.000	 56.43	100.71	
    10.24000	   30.000	 55.67	 98.33	
    10.25000	   30.500	 55.49	 98.44	
    10.26000	   30.000	 55.67	 98.33	
    10.27000	   30.000	 55.67	 98.33	
    10.28000	   29.500	 55.51	 98.22	
    10.29000	   29.500	 55.51	 98.22	
    10.30000	   29.500	 55.51	 98.22	
    10.31000	   29.500	 55.51	 98.22	
    10.32000	   27.500	 55.55	 97.00	
    10.33000	   29.500	 55.51	 98.22	
    10.34000	   28.000	 55.71	 98.57	
    10.35000	   29.500	 55.51	 98.22	
    10.36000	   29.500	 55.51	 98.22	
    10.37000	   25.000	 56.40	 99.40	
    10.38000	   22.500	 57.22	 99.22	
    10.39000	   18.500	 59.86	104.46	
    10.40000	   16.500	 58.03	104.39	
    10.41000	   18.500	 55.54	 99.05	
    10.42000	   18.500	 55.54	 99.05	
    10.43000	   16.500	 58.03	104.39	
    10.44000	   18.000	 56.39	103.06	
    10.45000	   15.500	 58.55	105.32	
    10.46000	   17.500	 55.86	 99.57	
    10.47000	   15.500	 58.55	105.32	
    10.48000	   17.500	 55.86	 99.57	
    10.49000	   15.500	 58.55	105.32	
    10.50000	   15.500	 58.55	105.32	
    10.51000	   15.500	 58.55	105.32	
    10.52000	   15.500	 58.55	105.32	
    10.53000	   17.500	 55.86	 99.57	
    10.54000	   13.500	 60.56	105.37	
    10.55000	   15.500	 58.55	105.32	
    10.56000	   15.500	 58.55	105.32	
    10.57000	   15.500	 58.55	105.32	
    10.58000	   15.500	 58.55	105.32	
    10.59000	   15.500	 58.55	105.32	
    10.60000	   15.500	 58.55	105.32	
    10.61000	   15.500	 58.55	105.32	
    10.62000	   15.500	 58.55	105.32	
    10.63000	   15.500	 58.55	105.32	
    10.64000	   15.500	 58.55	105.32	
    10.65000	   15.500	 58.55	105.32	
    10.66000	   16.000	 58.75	105.63	
    10.67000	   16.000	 58.75	105.63	
    10.68000	   16.500	 58.94	106.21	
    10.69000	   16.000	 58.75	105.63	
    10.70000	   16.000	 58.75	105.63	
    10.71000	   16.500	 58.94	106.21	
    10.72000	   16.500	 58.94	106.21	
    10.73000	   16.000	 58.75	105.63	
    10.74000	   16.500	 58.94	106.21	
    10.75000	   17.000	 58.24	105.00	
    10.76000	   16.000	 58.75	105.63	
    10.77000	   16.500	 58.94	106.21	
    10.78000	   19.000	 55.79	 99.74	
    10.79000	   21.000	 57.62	100.24	
    10.80000	   19.000	 60.00	105.00	
    10.81000	   17.000	 58.24	105.00	
    10.82000	   19.000	 56.84	103.95	
    10.83000	   21.000	 57.62	100.24	
    10.84000	   19.000	 55.79	 99.74	
    10.85000	   19.000	 55.79	 99.74	
    10.86000	   17.000	 58.24	105.00	
    10.87000	   18.500	 59.86	104.46	
    10.88000	   21.000	 57.62	100.24	
    10.89000	   19.000	 55.79	 99.74	
    10.90000	   21.000	 57.62	100.24	
    10.91000	   21.000	 54.76	 96.43	
    10.92000	   21.000	 57.62	100.24	
    10.93000	   23.500	 56.49	 97.34	
    10.94000	   23.000	 56.52	 97.17	
    10.95000	   23.000	 56.52	 97.17	
    10.96000	   23.500	 56.49	 97.34	
    10.97000	   23.000	 56.52	 97.17	
    10.98000	   23.000	 56.52	 97.17	
    10.99000	   27.000	 57.04	 99.07	
    11.00000	   23.000	 56.52	 97.17	
    11.01000	   24.000	 56.67	 97.50	
    11.02000	   26.000	 58.27	 99.81	
    11.03000	   26.000	 55.96	 97.50	
    11.04000	   29.000	 58.28	101.21	
    11.05000	   28.500	 58.16	100.96	
    11.06000	   28.500	 56.23	 99.04	
    11.07000	   28.500	 57.46	 99.56	
    11.08000	   29.000	 56.21	 97.76	
    11.09000	   31.000	 56.13	 98.87	
    11.10000	   31.000	 58.06	100.81	
    11.11000	   29.000	 57.59	 99.83	
    11.12000	   31.500	 56.43	 98.97	
    11.13000	   33.500	 57.54	100.52	
    11.14000	   31.000	 56.13	 98.87	
    11.15000	   27.500	 56.64	 98.64	
    11.16000	   33.000	 57.27	100.45	
    11.17000	   33.500	 56.94	 99.93	
    11.18000	   31.000	 56.13	 98.87	
    11.19000	   31.000	 56.13	 98.87	
    11.20000	   33.500	 57.54	100.52	
    11.21000	   33.500	 56.94	 99.93	
    11.22000	   33.000	 57.27	100.45	
    11.23000	   31.500	 57.06	100.24	
    11.24000	   33.500	 57.54	100.52	
    11.25000	   29.500	 56.53	 99.24	
    11.26000	   33.500	 57.54	100.52	
    11.27000	   31.500	 58.33	100.87	
    11.28000	   31.000	 57.42	100.81	
    11.29000	   31.500	 56.43	 98.97	
    11.30000	   33.500	 57.54	100.52	
    11.31000	   34.000	 57.35	100.59	
    11.32000	   34.500	 57.03	100.07	
    11.33000	   35.500	 56.27	 99.08	
    11.34000	   34.500	 57.03	100.07	
    11.35000	   34.500	 57.03	100.07	
    11.36000	   34.500	 57.03	100.07	
    11.37000	   34.000	 56.03	 98.82	
    11.38000	   34.500	 56.88	 99.35	
    11.39000	   32.500	 57.77	100.38	
    11.40000	   35.000	 56.86	 99.57	
    11.41000	   33.500	 57.54	100.52	
    11.42000	   34.500	 57.03	100.07	
    11.43000	   34.000	 57.21	100.00	
    11.44000	   32.000	 57.34	100.31	
    11.45000	   34.000	 56.76	 99.41	
    11.46000	   32.000	 57.34	100.31	
    11.47000	   34.000	 56.76	 99.41	
    11.48000	   34.500	 57.03	 99.49	
    11.49000	   31.500	 57.70	100.24	
    11.50000	   32.500	 57.77	 99.77	
    11.51000	   32.500	 57.15	100.38	
    11.52000	   34.000	 57.21	100.00	
    11.53000	   32.000	 57.34	100.31	
    11.54000	   30.000	 58.17	100.67	
    11.55000	   30.500	 57.95	100.08	
    11.56000	   32.500	 57.15	 99.77	
    11.57000	   30.000	 57.67	100.00	
    11.58000	   30.000	 57.67	100.00	
    11.59000	   33.500	 56.94	 99.93	
    11.60000	   30.000	 58.17	100.67	
    11.61000	   29.500	 57.88	100.59	
    11.62000	   29.500	 57.88	100.59	
    11.63000	   30.000	 58.17	100.67	
    11.64000	   29.500	 57.88	100.59	
    11.65000	   32.000	 56.72	 99.53	
    11.66000	   30.500	 57.30	 99.26	
    11.67000	   32.500	 56.54	 99.00	
    11.68000	   32.500	 55.92	 97.77	
    11.69000	   32.500	 55.92	 97.77	
    11.70000	   30.500	 57.30	 99.26	
    11.71000	   30.500	 57.95	100.08	
    11.72000	   33.000	 56.21	 97.88	
    11.73000	   35.000	 54.43	 96.00	
    11.74000	   31.000	 57.10	 99.35	
    11.75000	   35.000	 54.57	 96.71	
    11.76000	   33.000	 56.21	 97.88	
    11.77000	   37.000	 55.00	 97.03	
    11.78000	   35.000	 55.57	 97.71	
    11.79000	   37.500	 53.80	 96.07	
    11.80000	   37.000	 53.92	 95.95	
    11.81000	   39.500	 52.34	 93.99	
    11.82000	   37.500	 52.73	 93.93	
    11.83000	   39.500	 53.86	 96.01	
    11.84000	   43.500	 52.13	 92.24	
    11.85000	   39.500	 53.86	 96.01	
    11.86000	   37.500	 53.80	 96.07	
    11.87000	   41.500	 52.47	 94.04	
    11.88000	   37.500	 53.80	 96.07	
    11.89000	   40.000	 52.50	 94.25	
    11.90000	   41.500	 52.47	 94.04	
    11.91000	   41.500	 52.47	 92.11	
    11.92000	   40.000	 52.63	 94.25	
    11.93000	   39.500	 52.34	 93.99	
    11.94000	   40.500	 52.78	 94.51	
    11.95000	   44.500	 52.42	 92.64	
    11.96000	   42.000	 52.14	 92.38	
    11.97000	   45.000	 52.67	 92.89	
    11.98000	   43.000	 53.02	 94.65	
    11.99000	   43.000	 52.33	 92.79	
    12.00000	   45.500	 52.69	 93.13	
    12.01000	   42.500	 53.82	 94.53	
    12.02000	   41.000	 52.80	 94.76	
    12.03000	   43.500	 53.97	 94.89	
    12.04000	   45.500	 52.69	 93.13	
    12.05000	   43.500	 55.80	 95.80	
    12.06000	   45.500	 52.69	 93.13	
    12.07000	   45.000	 54.11	 93.89	
    12.08000	   43.500	 55.34	 95.80	
    12.09000	   43.000	 52.67	 92.91	
    12.10000	   47.000	 54.15	 93.94	
    12.11000	   43.500	 54.43	 93.97	
    12.12000	   47.000	 53.94	 93.94	
    12.13000	   41.000	 53.78	 94.76	
    12.14000	   44.500	 53.88	 93.65	
    12.15000	   41.000	 53.78	 94.76	
    12.16000	   42.500	 53.00	 92.76	
    12.17000	   38.500	 54.22	 94.48	
    12.18000	   40.500	 52.78	 92.53	
    12.19000	   41.500	 51.99	 92.11	
    12.20000	   40.000	 53.63	 94.38	
    12.21000	   39.000	 53.46	 93.85	
    12.22000	   40.000	 53.00	 94.25	
    12.23000	   35.500	 54.58	 96.27	
    12.24000	   38.500	 54.22	 94.48	
    12.25000	   38.500	 54.22	 94.48	
    12.26000	   40.500	 52.78	 94.51	
    12.27000	   40.000	 53.75	 94.38	
    12.28000	   40.500	 52.78	 92.53	
    12.29000	   38.000	 54.34	 94.34	
    12.30000	   42.000	 52.50	 92.50	
    12.31000	   39.500	 52.34	 91.96	
    12.32000	   37.000	 52.84	 93.78	
    12.33000	   41.500	 52.35	 92.23	
    12.34000	   37.500	 54.07	 93.53	
    12.35000	   37.000	 53.92	 93.78	
    12.36000	   35.500	 54.30	 96.13	
    12.37000	   35.500	 54.30	 96.13	
    12.38000	   39.000	 53.46	 93.85	
    12.39000	   41.000	 52.56	 91.95	
    12.40000	   35.000	 54.43	 95.43	
    12.41000	   35.500	 54.30	 96.13	
    12.42000	   38.000	 52.89	 94.21	
    12.43000	   36.500	 52.53	 93.63	
    12.44000	   35.000	 54.43	 96.00	
    12.45000	   39.000	 52.44	 91.79	
    12.46000	   37.500	 52.73	 93.93	
    12.47000	   33.000	 56.21	 97.88	
    12.48000	   35.000	 54.43	 96.00	
    12.49000	   35.000	 54.43	 96.00	
    12.50000	   34.500	 54.13	 95.87	
    12.51000	   35.000	 54.43	 96.00	
    12.52000	   33.000	 56.21	 97.88	
    12.53000	   33.000	 56.21	 97.88	
    12.54000	   35.000	 54.43	 96.00	
    12.55000	   35.500	 54.72	 96.27	
    12.56000	   39.000	 52.44	 93.85	
    12.57000	   35.000	 54.43	 96.00	
    12.58000	   34.500	 54.13	 95.87	
    12.59000	   33.500	 56.19	 98.73	
    12.60000	   33.500	 56.19	 98.13	
    12.61000	   37.000	 53.92	 95.95	
    12.62000	   33.000	 56.21	 97.88	
    12.63000	   35.000	 54.43	 96.00	
    12.64000	   36.500	 54.86	 96.78	
    12.65000	   39.500	 52.59	 92.09	
    12.66000	   36.000	 54.72	 96.53	
    12.67000	   37.500	 53.13	 94.07	
    12.68000	   37.500	 53.93	 94.07	
    12.69000	   38.000	 53.03	 94.34	
    12.70000	   43.500	 54.08	 93.62	
    12.71000	   43.000	 54.30	 93.84	
    12.72000	   43.000	 54.30	 93.84	
    12.73000	   45.500	 54.12	 94.23	
    12.74000	   43.500	 54.08	 93.62	
    12.75000	   45.000	 53.89	 93.89	
    12.76000	   45.500	 54.12	 94.23	
    12.77000	   46.500	 53.28	 93.60	
    12.78000	   48.000	 53.13	 93.85	
    12.79000	   46.500	 53.71	 93.60	
    12.80000	   45.000	 54.22	 93.67	
    12.81000	   47.000	 53.83	 93.72	
    12.82000	   49.500	 52.78	 93.48	
    12.83000	   47.000	 53.83	 93.72	
    12.84000	   52.000	 51.63	 92.50	
    12.85000	   53.000	 52.45	 94.25	
    12.86000	   50.000	 52.30	 92.40	
    12.87000	   52.000	 52.21	 92.98	
    12.88000	   59.500	 51.89	 94.66	
    12.89000	   58.000	 51.21	 92.93	
    12.90000	   56.000	 51.07	 92.86	
    12.91000	   56.500	 51.81	 92.61	
    12.92000	   56.500	 52.88	 94.03	
    12.93000	   60.500	 51.61	 94.01	
    12.94000	   59.000	 52.46	 94.58	
    12.95000	   60.000	 51.75	 94.42	
    12.96000	   59.000	 51.53	 94.07	
    12.97000	   62.000	 51.85	 94.44	
    12.98000	   59.500	 52.39	 93.99	
    12.99000	   62.500	 52.36	 93.00	
    13.00000	   65.000	 51.92	 91.62	
    13.01000	   67.500	 51.00	 90.04	
    13.02000	   63.000	 51.67	 91.11	
    13.03000	   68.000	 51.40	 91.99	
    13.04000	   70.500	 51.45	 90.60	
    13.05000	   71.000	 51.83	 91.20	
    13.06000	   74.000	 51.22	 89.93	
    13.07000	   75.000	 51.33	 89.87	
    13.08000	   75.500	 51.16	 89.64	
    13.09000	   77.500	 51.00	 89.26	
    13.10000	   76.000	 51.25	 89.87	
    13.11000	   78.500	 51.05	 89.33	
    13.12000	   79.000	 51.08	 89.18	
    13.13000	   79.500	 51.10	 89.28	
    13.14000	   83.000	 51.51	 89.22	
    13.15000	   85.000	 51.65	 89.29	
    13.16000	   82.500	 51.42	 88.33	
    13.17000	   85.500	 51.84	 89.44	
    13.18000	   86.000	 51.86	 89.30	
    13.19000	   84.500	 52.04	 88.96	
    13.20000	   87.000	 52.01	 89.60	
    13.21000	   86.500	 52.11	 89.51	
    13.22000	   90.000	 51.72	 89.83	
    13.23000	   87.500	 52.03	 89.40	
    13.24000	   89.500	 51.87	 89.97	
    13.25000	   87.500	 52.03	 89.40	
    13.26000	   88.000	 52.16	 89.55	
    13.27000	   88.500	 51.84	 89.18	
    13.28000	   89.000	 51.69	 89.04	
    13.29000	   91.500	 52.54	 89.97	
    13.30000	   92.500	 52.46	 89.76	
    13.31000	   92.500	 52.78	 90.03	
    13.32000	   94.500	 52.94	 90.71	
    13.33000	   95.000	 53.11	 90.84	
    13.34000	   97.500	 53.82	 91.21	
    13.35000	   97.000	 53.87	 91.08	
    13.36000	  100.500	 53.51	 91.52	
    13.37000	   99.000	 53.59	 91.62	
    13.38000	  100.500	 53.51	 91.52	
    13.39000	   98.500	 53.63	 90.94	
    13.40000	  101.500	 53.28	 91.31	
    13.41000	  100.000	 53.50	 90.90	
    13.42000	  100.000	 53.50	 90.90	
    13.43000	  100.500	 53.46	 90.92	
    13.44000	  103.000	 53.35	 91.36	
    13.45000	  102.000	 53.48	 90.74	
    13.46000	  105.500	 53.48	 91.30	
    13.47000	  106.000	 53.58	 91.13	
    13.48000	  106.500	 53.69	 91.48	
    13.49000	  107.000	 53.79	 91.64	
    13.50000	  107.500	 53.65	 91.14	
    13.51000	  107.500	 53.65	 91.14	
    13.52000	  108.000	 53.43	 90.97	
    13.53000	  109.000	 53.58	 90.92	
    13.54000	  111.500	 53.88	 91.14	
    13.55000	  110.000	 53.55	 90.86	
    13.56000	  110.000	 53.68	 91.18	
    13.57000	  110.500	 53.42	 90.79	
    13.58000	  109.000	 53.67	 90.41	
    13.59000	  111.500	 53.39	 90.78	
    13.60000	  110.500	 53.46	 90.70	
    13.61000	  112.000	 53.66	 90.36	
    13.62000	  112.500	 53.40	 90.82	
    13.63000	  113.500	 53.33	 90.73	
    13.64000	  113.500	 53.41	 90.77	
    13.65000	  115.500	 53.40	 90.76	
    13.66000	  115.500	 52.75	 89.98	
    13.67000	  115.000	 53.52	 90.83	
    13.68000	  116.500	 52.64	 89.89	
    13.69000	  117.000	 53.08	 90.38	
    13.70000	  115.500	 53.66	 91.06	
    13.71000	  115.500	 53.53	 90.89	
    13.72000	  116.500	 52.81	 90.15	
    13.73000	  118.500	 53.73	 90.99	
    13.74000	  117.000	 52.82	 90.00	
    13.75000	  119.500	 52.95	 90.10	
    13.76000	  121.000	 52.36	 89.55	
    13.77000	  121.500	 52.28	 89.69	
    13.78000	  123.000	 52.28	 89.76	
    13.79000	  123.000	 52.48	 89.88	
    13.80000	  126.000	 53.57	 91.63	
    13.81000	  129.000	 52.56	 90.08	
    13.82000	  129.500	 52.49	 90.06	
    13.83000	  129.000	 52.52	 89.46	
    13.84000	  132.500	 52.89	 90.28	
    13.85000	  129.000	 52.71	 89.96	
    13.86000	  130.500	 52.82	 89.64	
    13.87000	  130.500	 52.51	 89.44	
    13.88000	  135.500	 52.68	 90.13	
    13.89000	  135.000	 52.44	 90.00	
    13.90000	  133.000	 52.63	 90.15	
    13.91000	  137.000	 52.74	 89.93	
    13.92000	  137.000	 52.77	 89.96	
    13.93000	  137.000	 52.92	 90.26	
    13.94000	  138.000	 52.83	 90.11	
    13.95000	  138.000	 52.79	 90.14	
    13.96000	  139.000	 52.84	 89.93	
    13.97000	  140.000	 52.96	 90.07	
    13.98000	  137.500	 52.67	 89.84	
    13.99000	  140.000	 53.04	 90.18	
    14.00000	  140.500	 52.86	 89.84	
    14.01000	  140.000	 52.86	 89.82	
    14.02000	  140.000	 52.96	 90.07	
    14.03000	  140.500	 52.90	 90.09	
    14.04000	  142.500	 52.68	 89.84	
    14.05000	  143.000	 52.73	 89.97	
    14.06000	  142.000	 53.03	 90.14	
    14.07000	  139.500	 52.63	 88.98	
    14.08000	  138.500	 52.73	 88.94	
    14.09000	  143.000	 53.15	 89.93	
    14.10000	  143.500	 53.01	 89.74	
    14.11000	  142.500	 52.86	 89.07	
    14.12000	  145.000	 53.03	 89.86	
    14.13000	  142.500	 52.93	 89.11	
    14.14000	  144.500	 53.17	 89.84	
    14.15000	  146.500	 53.05	 89.71	
    14.16000	  145.500	 53.18	 89.78	
    14.17000	  145.500	 53.08	 89.60	
    14.18000	  145.000	 53.17	 89.72	
    14.19000	  144.000	 52.85	 88.85	
    14.20000	  145.000	 53.17	 89.72	
    14.21000	  145.500	 53.01	 89.47	
    14.22000	  141.500	 53.06	 89.70	
    14.23000	  140.000	 52.82	 88.89	
    14.24000	  143.000	 53.01	 89.65	
    14.25000	  146.000	 53.01	 89.62	
    14.26000	  145.000	 53.17	 89.72	
    14.27000	  144.500	 53.17	 89.67	
    14.28000	  144.000	 53.19	 89.79	
    14.29000	  145.000	 53.10	 89.79	
    14.30000	  143.500	 53.15	 89.88	
    14.31000	  143.000	 53.08	 89.58	
    14.32000	  142.500	 52.96	 89.70	
    14.33000	  144.500	 53.24	 89.91	
    14.34000	  143.500	 53.22	 90.05	
    14.35000	  141.500	 53.06	 89.70	
    14.36000	  144.500	 52.96	 89.60	
    14.37000	  141.000	 52.94	 89.75	
    14.38000	  141.000	 52.98	 89.89	
    14.39000	  141.000	 52.77	 89.61	
    14.40000	  143.000	 52.80	 89.58	
    14.41000	  142.500	 52.86	 89.81	
    14.42000	  143.000	 52.73	 89.55	
    14.43000	  143.500	 52.74	 89.60	
    14.44000	  142.000	 52.96	 89.54	
    14.45000	  142.500	 52.89	 89.63	
    14.46000	  145.000	 52.93	 89.59	
    14.47000	  143.000	 52.73	 89.41	
    14.48000	  145.000	 52.66	 89.45	
    14.49000	  145.500	 52.70	 89.30	
    14.50000	  144.000	 52.50	 89.41	
    14.51000	  146.000	 52.64	 89.28	
    14.52000	  146.000	 52.71	 89.52	
    14.53000	  145.500	 52.63	 89.12	
    14.54000	  145.500	 52.70	 89.43	
    14.55000	  144.000	 52.57	 89.31	
    14.56000	  143.500	 52.60	 89.43	
    14.57000	  143.500	 52.63	 89.43	
    14.58000	  138.500	 52.47	 89.15	
    14.59000	  138.500	 52.22	 89.15	
    14.60000	  136.500	 52.25	 88.81	
    14.61000	  136.000	 51.99	 88.71	
    14.62000	  133.000	 51.77	 87.93	
    14.63000	  133.500	 51.97	 88.71	
    14.64000	  131.000	 51.91	 88.85	
    14.65000	  130.000	 51.73	 88.65	
    14.66000	  124.500	 51.02	 86.93	
    14.67000	  122.500	 50.80	 86.88	
    14.68000	  119.500	 50.61	 86.55	
    14.69000	  119.000	 50.34	 86.13	
    14.70000	  119.000	 50.13	 86.13	
    14.71000	  123.500	 50.59	 86.62	
    14.72000	  133.500	 50.84	 87.32	
    14.73000	  144.500	 51.26	 87.63	
    14.74000	  170.500	 52.04	 88.28	
    14.75000	  213.000	 51.76	 88.76	
    14.76000	  265.500	 52.68	 88.65	
    14.77000	  334.500	 53.15	 88.89	
    14.78000	  400.000	 53.54	 88.91	
    14.79000	  454.000	 53.79	 88.56	
    14.80000	  497.000	 53.37	 87.99	
    14.81000	  532.000	 53.55	 87.80	
    14.82000	  553.000	 53.54	 87.47	
    14.83000	  559.500	 53.73	 87.64	
    14.84000	  550.000	 53.44	 87.32	
    14.85000	  538.500	 53.41	 87.21	
    14.86000	  516.500	 53.28	 86.85	
    14.87000	  488.000	 53.38	 87.26	
    14.88000	  460.000	 53.26	 87.41	
    14.89000	  432.500	 53.21	 87.08	
    14.90000	  406.000	 53.18	 87.41	
    14.91000	  386.500	 53.10	 87.59	
    14.92000	  366.500	 52.97	 87.61	
    14.93000	  347.000	 52.61	 87.31	
    14.94000	  330.000	 52.38	 87.12	
    14.95000	  321.000	 52.27	 87.29	
    14.96000	  306.000	 52.29	 87.14	
    14.97000	  297.500	 52.31	 87.24	
    14.98000	  289.500	 52.41	 87.49	
    14.99000	  285.500	 52.36	 87.45	
    15.00000	  274.000	 52.41	 87.70	
    15.01000	  267.000	 52.51	 87.79	
    15.02000	  259.500	 52.71	 88.10	
    15.03000	  249.500	 52.64	 88.49	
    15.04000	  239.000	 52.57	 88.47	
    15.05000	  224.000	 52.41	 88.06	
    15.06000	  207.000	 52.73	 88.09	
    15.07000	  190.000	 52.68	 88.53	
    15.08000	  177.500	 52.30	 88.41	
    15.09000	  167.000	 52.34	 88.86	
    15.10000	  154.000	 51.66	 88.80	
    15.11000	  144.500	 51.75	 88.43	
    15.12000	  132.000	 52.08	 88.52	
    15.13000	  117.000	 51.28	 87.91	
    15.14000	  105.000	 51.24	 87.05	
    15.15000	   87.000	 48.68	 84.08	
    15.16000	   70.000	 47.71	 83.36	
    15.17000	   51.500	 49.56	 88.59	
    15.18000	   43.000	 49.88	 89.53	
    15.19000	   29.500	 48.90	 87.88	
    15.20000	   20.500	 52.07	 93.29	
    15.21000	    8.500	 52.65	 97.94	
    15.22000	    4.500	 59.44	109.44	
    15.23000	    2.000	 55.00	105.00	
    15.24000	    2.000	 55.00	105.00	
    15.25000	    0.000	  0.00	  0.00	
    15.26000	    0.000	  0.00	  0.00	
    15.27000	    0.000	  0.00	  0.00	
    15.28000	    0.000	  0.00	  0.00	
    15.29000	    0.000	  0.00	  0.00	
    15.30000	    0.000	  0.00	  0.00	
    15.31000	    0.000	  0.00	  0.00	
    15.32000	    0.000	  0.00	  0.00	
    15.33000	    0.000	  0.00	  0.00	
    15.34000	    0.000	  0.00	  0.00	
    15.35000	    0.000	  0.00	  0.00	
    15.36000	    0.000	  0.00	  0.00	
    15.37000	    0.000	  0.00	  0.00	
    15.38000	    0.000	  0.00	  0.00	
    15.39000	    0.000	  0.00	  0.00	
    15.40000	    0.000	  0.00	  0.00	
    15.41000	    0.000	  0.00	  0.00	
    15.42000	    0.000	  0.00	  0.00	
    15.43000	    0.000	  0.00	  0.00	
    15.44000	    0.000	  0.00	  0.00	
    15.45000	    0.000	  0.00	  0.00	
    15.46000	    0.000	  0.00	  0.00	
    15.47000	    0.000	  0.00	  0.00	
    15.48000	    0.000	  0.00	  0.00	
    15.49000	    0.000	  0.00	  0.00	
    15.50000	    0.000	  0.00	  0.00	
    15.51000	    0.000	  0.00	  0.00	
    15.52000	    0.000	  0.00	  0.00	
    15.53000	    0.000	  0.00	  0.00	
    15.54000	    0.000	  0.00	  0.00	
    15.55000	    0.000	  0.00	  0.00	
    15.56000	    0.000	  0.00	  0.00	
    15.57000	    0.000	  0.00	  0.00	
    15.58000	    0.000	  0.00	  0.00	
    15.59000	    0.000	  0.00	  0.00	
    15.60000	    0.000	  0.00	  0.00	
    15.61000	    0.000	  0.00	  0.00	
    15.62000	    0.000	  0.00	  0.00	
    15.63000	    0.000	  0.00	  0.00	
    15.64000	    0.000	  0.00	  0.00	
    15.65000	    0.000	  0.00	  0.00	
    15.66000	    0.000	  0.00	  0.00	
    15.67000	    0.000	  0.00	  0.00	
    15.68000	    0.000	  0.00	  0.00	
    15.69000	    0.000	  0.00	  0.00	
    15.70000	    0.000	  0.00	  0.00	
    15.71000	    0.000	  0.00	  0.00	
    15.72000	    0.000	  0.00	  0.00	
    15.73000	    0.000	  0.00	  0.00	
    15.74000	    0.000	  0.00	  0.00	
    15.75000	    0.000	  0.00	  0.00	
    15.76000	    0.000	  0.00	  0.00	
    15.77000	    0.000	  0.00	  0.00	
    15.78000	    0.000	  0.00	  0.00	
    15.79000	    0.000	  0.00	  0.00	
    15.80000	    0.000	  0.00	  0.00	
    15.81000	    0.000	  0.00	  0.00	
    15.82000	    0.000	  0.00	  0.00	
    15.83000	    0.000	  0.00	  0.00	
    15.84000	    0.000	  0.00	  0.00	
    15.85000	    0.000	  0.00	  0.00	
    15.86000	    0.000	  0.00	  0.00	
    15.87000	    0.000	  0.00	  0.00	
    15.88000	    0.000	  0.00	  0.00	
    15.89000	    0.000	  0.00	  0.00	
    15.90000	    0.000	  0.00	  0.00	
    15.91000	    0.000	  0.00	  0.00	
    15.92000	    0.000	  0.00	  0.00	
    15.93000	    0.000	  0.00	  0.00	
    15.94000	    0.000	  0.00	  0.00	
    15.95000	    0.000	  0.00	  0.00	
    15.96000	    0.000	  0.00	  0.00	
    15.97000	    0.000	  0.00	  0.00	
    15.98000	    0.000	  0.00	  0.00	
    15.99000	    0.000	  0.00	  0.00	
    16.00000	    0.000	  0.00	  0.00	
    16.01000	    0.000	  0.00	  0.00	
    16.02000	    0.000	  0.00	  0.00	
    16.03000	    0.000	  0.00	  0.00	
    16.04000	    0.000	  0.00	  0.00	
    16.05000	    0.000	  0.00	  0.00	
    16.06000	    0.000	  0.00	  0.00	
    16.07000	    0.000	  0.00	  0.00	
    16.08000	    0.000	  0.00	  0.00	
    16.09000	    0.000	  0.00	  0.00	
    16.10000	    0.000	  0.00	  0.00	
    16.11000	    0.000	  0.00	  0.00	
    16.12000	    0.000	  0.00	  0.00	
    16.13000	    0.000	  0.00	  0.00	
    16.14000	    0.000	  0.00	  0.00	
    16.15000	    0.000	  0.00	  0.00	
    16.16000	    0.000	  0.00	  0.00	
    16.17000	    0.000	  0.00	  0.00	
    16.18000	    0.000	  0.00	  0.00	
    16.19000	    0.000	  0.00	  0.00	
    16.20000	    0.000	  0.00	  0.00	
    16.21000	    0.000	  0.00	  0.00	
    16.22000	    0.000	  0.00	  0.00	
    16.23000	    0.000	  0.00	  0.00	
    16.24000	    0.000	  0.00	  0.00	
    16.25000	    0.000	  0.00	  0.00	
    16.26000	    0.000	  0.00	  0.00	
    16.27000	    0.000	  0.00	  0.00	
    16.28000	    0.000	  0.00	  0.00	
    16.29000	    0.000	  0.00	  0.00	
    16.30000	    0.000	  0.00	  0.00	
    16.31000	    0.000	  0.00	  0.00	
    16.32000	    0.000	  0.00	  0.00	
    16.33000	    0.000	  0.00	  0.00	
    16.34000	    0.000	  0.00	  0.00	
    16.35000	    0.000	  0.00	  0.00	
    16.36000	    0.000	  0.00	  0.00	
    16.37000	    0.000	  0.00	  0.00	
    16.38000	    0.000	  0.00	  0.00	
    16.39000	    0.000	  0.00	  0.00	
    16.40000	    0.000	  0.00	  0.00	
    16.41000	    0.000	  0.00	  0.00	
