file name:  S2128_09_1_2_MPa_PXF440_220809_420.mat	date/time  03.09.22 15.58
sensor type:  s2128_09_1_2_mpa_pxf440_220809 
force time integral[N*s]:       655.230
pressure time integral [kPa*s]:      673.100
total time [secs]:  11.280	time per frame [secs]:  0.01000	scanning rate [Hz]:   100


time[secs]    	force[N]   	x[mm]     	y[mm] 	

     0.01000	    0.000	  0.00	  0.00	
     0.02000	    0.000	  0.00	  0.00	
     0.03000	    0.000	  0.00	  0.00	
     0.04000	    0.000	  0.00	  0.00	
     0.05000	    0.000	  0.00	  0.00	
     0.06000	    0.000	  0.00	  0.00	
     0.07000	    0.000	  0.00	  0.00	
     0.08000	    0.000	  0.00	  0.00	
     0.09000	    0.000	  0.00	  0.00	
     0.10000	    0.000	  0.00	  0.00	
     0.11000	    0.000	  0.00	  0.00	
     0.12000	    0.000	  0.00	  0.00	
     0.13000	    0.000	  0.00	  0.00	
     0.14000	    0.000	  0.00	  0.00	
     0.15000	    0.000	  0.00	  0.00	
     0.16000	    0.000	  0.00	  0.00	
     0.17000	    0.000	  0.00	  0.00	
     0.18000	    0.000	  0.00	  0.00	
     0.19000	    0.000	  0.00	  0.00	
     0.20000	    0.000	  0.00	  0.00	
     0.21000	    0.000	  0.00	  0.00	
     0.22000	    0.000	  0.00	  0.00	
     0.23000	    0.000	  0.00	  0.00	
     0.24000	    0.000	  0.00	  0.00	
     0.25000	    0.000	  0.00	  0.00	
     0.26000	    0.000	  0.00	  0.00	
     0.27000	    0.000	  0.00	  0.00	
     0.28000	    0.000	  0.00	  0.00	
     0.29000	    0.000	  0.00	  0.00	
     0.30000	    0.000	  0.00	  0.00	
     0.31000	    0.000	  0.00	  0.00	
     0.32000	    0.000	  0.00	  0.00	
     0.33000	    0.000	  0.00	  0.00	
     0.34000	    0.000	  0.00	  0.00	
     0.35000	    0.000	  0.00	  0.00	
     0.36000	    0.000	  0.00	  0.00	
     0.37000	    0.000	  0.00	  0.00	
     0.38000	    0.000	  0.00	  0.00	
     0.39000	    0.000	  0.00	  0.00	
     0.40000	    0.000	  0.00	  0.00	
     0.41000	    0.000	  0.00	  0.00	
     0.42000	    0.000	  0.00	  0.00	
     0.43000	    0.000	  0.00	  0.00	
     0.44000	    0.000	  0.00	  0.00	
     0.45000	    0.000	  0.00	  0.00	
     0.46000	    0.000	  0.00	  0.00	
     0.47000	    0.000	  0.00	  0.00	
     0.48000	    0.000	  0.00	  0.00	
     0.49000	    0.000	  0.00	  0.00	
     0.50000	    0.000	  0.00	  0.00	
     0.51000	    0.000	  0.00	  0.00	
     0.52000	    0.000	  0.00	  0.00	
     0.53000	    0.000	  0.00	  0.00	
     0.54000	    0.000	  0.00	  0.00	
     0.55000	    0.000	  0.00	  0.00	
     0.56000	    0.000	  0.00	  0.00	
     0.57000	    0.000	  0.00	  0.00	
     0.58000	    0.000	  0.00	  0.00	
     0.59000	    0.000	  0.00	  0.00	
     0.60000	    0.000	  0.00	  0.00	
     0.61000	    0.000	  0.00	  0.00	
     0.62000	    0.000	  0.00	  0.00	
     0.63000	    0.000	  0.00	  0.00	
     0.64000	    0.000	  0.00	  0.00	
     0.65000	    0.000	  0.00	  0.00	
     0.66000	    0.000	  0.00	  0.00	
     0.67000	    0.000	  0.00	  0.00	
     0.68000	    0.000	  0.00	  0.00	
     0.69000	    0.000	  0.00	  0.00	
     0.70000	    0.000	  0.00	  0.00	
     0.71000	    0.000	  0.00	  0.00	
     0.72000	    0.000	  0.00	  0.00	
     0.73000	    0.000	  0.00	  0.00	
     0.74000	    0.000	  0.00	  0.00	
     0.75000	    0.000	  0.00	  0.00	
     0.76000	    0.000	  0.00	  0.00	
     0.77000	    0.000	  0.00	  0.00	
     0.78000	    0.000	  0.00	  0.00	
     0.79000	    0.000	  0.00	  0.00	
     0.80000	    0.000	  0.00	  0.00	
     0.81000	    0.000	  0.00	  0.00	
     0.82000	    0.000	  0.00	  0.00	
     0.83000	    0.000	  0.00	  0.00	
     0.84000	    0.000	  0.00	  0.00	
     0.85000	    0.000	  0.00	  0.00	
     0.86000	    0.000	  0.00	  0.00	
     0.87000	    0.000	  0.00	  0.00	
     0.88000	    0.000	  0.00	  0.00	
     0.89000	    0.000	  0.00	  0.00	
     0.90000	    0.000	  0.00	  0.00	
     0.91000	    0.000	  0.00	  0.00	
     0.92000	    0.000	  0.00	  0.00	
     0.93000	    0.000	  0.00	  0.00	
     0.94000	    0.000	  0.00	  0.00	
     0.95000	    0.000	  0.00	  0.00	
     0.96000	    0.000	  0.00	  0.00	
     0.97000	    0.000	  0.00	  0.00	
     0.98000	    0.000	  0.00	  0.00	
     0.99000	    0.000	  0.00	  0.00	
     1.00000	    0.000	  0.00	  0.00	
     1.01000	    0.000	  0.00	  0.00	
     1.02000	    0.000	  0.00	  0.00	
     1.03000	    0.000	  0.00	  0.00	
     1.04000	    0.000	  0.00	  0.00	
     1.05000	    0.000	  0.00	  0.00	
     1.06000	    0.000	  0.00	  0.00	
     1.07000	    0.000	  0.00	  0.00	
     1.08000	    0.000	  0.00	  0.00	
     1.09000	    0.000	  0.00	  0.00	
     1.10000	    0.000	  0.00	  0.00	
     1.11000	    0.000	  0.00	  0.00	
     1.12000	    0.000	  0.00	  0.00	
     1.13000	    0.000	  0.00	  0.00	
     1.14000	    0.000	  0.00	  0.00	
     1.15000	    0.000	  0.00	  0.00	
     1.16000	    0.000	  0.00	  0.00	
     1.17000	    0.000	  0.00	  0.00	
     1.18000	    0.000	  0.00	  0.00	
     1.19000	    0.000	  0.00	  0.00	
     1.20000	    0.000	  0.00	  0.00	
     1.21000	    0.000	  0.00	  0.00	
     1.22000	    0.000	  0.00	  0.00	
     1.23000	    0.000	  0.00	  0.00	
     1.24000	    0.000	  0.00	  0.00	
     1.25000	    0.000	  0.00	  0.00	
     1.26000	    0.000	  0.00	  0.00	
     1.27000	    0.000	  0.00	  0.00	
     1.28000	    0.000	  0.00	  0.00	
     1.29000	    0.000	  0.00	  0.00	
     1.30000	    0.000	  0.00	  0.00	
     1.31000	    0.000	  0.00	  0.00	
     1.32000	    0.000	  0.00	  0.00	
     1.33000	    0.000	  0.00	  0.00	
     1.34000	    0.000	  0.00	  0.00	
     1.35000	    0.000	  0.00	  0.00	
     1.36000	    0.000	  0.00	  0.00	
     1.37000	    0.000	  0.00	  0.00	
     1.38000	    0.000	  0.00	  0.00	
     1.39000	    0.000	  0.00	  0.00	
     1.40000	    0.000	  0.00	  0.00	
     1.41000	    0.000	  0.00	  0.00	
     1.42000	    0.000	  0.00	  0.00	
     1.43000	    0.000	  0.00	  0.00	
     1.44000	    0.000	  0.00	  0.00	
     1.45000	    0.000	  0.00	  0.00	
     1.46000	    0.000	  0.00	  0.00	
     1.47000	    0.000	  0.00	  0.00	
     1.48000	    0.000	  0.00	  0.00	
     1.49000	    0.000	  0.00	  0.00	
     1.50000	    0.000	  0.00	  0.00	
     1.51000	    0.000	  0.00	  0.00	
     1.52000	    0.000	  0.00	  0.00	
     1.53000	    0.000	  0.00	  0.00	
     1.54000	    0.000	  0.00	  0.00	
     1.55000	    0.000	  0.00	  0.00	
     1.56000	    0.000	  0.00	  0.00	
     1.57000	    0.000	  0.00	  0.00	
     1.58000	    0.000	  0.00	  0.00	
     1.59000	    0.000	  0.00	  0.00	
     1.60000	    0.000	  0.00	  0.00	
     1.61000	    0.000	  0.00	  0.00	
     1.62000	    0.000	  0.00	  0.00	
     1.63000	    0.000	  0.00	  0.00	
     1.64000	    0.000	  0.00	  0.00	
     1.65000	    0.000	  0.00	  0.00	
     1.66000	    0.000	  0.00	  0.00	
     1.67000	    0.000	  0.00	  0.00	
     1.68000	    0.000	  0.00	  0.00	
     1.69000	    0.000	  0.00	  0.00	
     1.70000	    0.000	  0.00	  0.00	
     1.71000	    0.000	  0.00	  0.00	
     1.72000	    0.000	  0.00	  0.00	
     1.73000	    0.000	  0.00	  0.00	
     1.74000	    0.000	  0.00	  0.00	
     1.75000	    0.000	  0.00	  0.00	
     1.76000	    0.000	  0.00	  0.00	
     1.77000	    0.000	  0.00	  0.00	
     1.78000	    0.000	  0.00	  0.00	
     1.79000	    0.000	  0.00	  0.00	
     1.80000	    0.000	  0.00	  0.00	
     1.81000	    0.000	  0.00	  0.00	
     1.82000	    0.000	  0.00	  0.00	
     1.83000	    0.000	  0.00	  0.00	
     1.84000	    0.000	  0.00	  0.00	
     1.85000	    0.000	  0.00	  0.00	
     1.86000	    0.000	  0.00	  0.00	
     1.87000	    0.000	  0.00	  0.00	
     1.88000	    0.000	  0.00	  0.00	
     1.89000	    0.000	  0.00	  0.00	
     1.90000	    0.000	  0.00	  0.00	
     1.91000	    0.000	  0.00	  0.00	
     1.92000	    0.000	  0.00	  0.00	
     1.93000	    0.000	  0.00	  0.00	
     1.94000	    0.000	  0.00	  0.00	
     1.95000	    0.000	  0.00	  0.00	
     1.96000	    0.000	  0.00	  0.00	
     1.97000	    0.000	  0.00	  0.00	
     1.98000	    0.000	  0.00	  0.00	
     1.99000	    0.000	  0.00	  0.00	
     2.00000	    0.000	  0.00	  0.00	
     2.01000	    0.000	  0.00	  0.00	
     2.02000	    0.000	  0.00	  0.00	
     2.03000	    0.000	  0.00	  0.00	
     2.04000	    0.000	  0.00	  0.00	
     2.05000	    0.000	  0.00	  0.00	
     2.06000	    0.000	  0.00	  0.00	
     2.07000	    0.000	  0.00	  0.00	
     2.08000	    0.000	  0.00	  0.00	
     2.09000	    0.000	  0.00	  0.00	
     2.10000	    0.000	  0.00	  0.00	
     2.11000	    0.000	  0.00	  0.00	
     2.12000	    0.000	  0.00	  0.00	
     2.13000	    0.000	  0.00	  0.00	
     2.14000	    0.000	  0.00	  0.00	
     2.15000	    0.000	  0.00	  0.00	
     2.16000	    0.000	  0.00	  0.00	
     2.17000	    0.000	  0.00	  0.00	
     2.18000	    0.000	  0.00	  0.00	
     2.19000	    0.000	  0.00	  0.00	
     2.20000	    0.000	  0.00	  0.00	
     2.21000	    0.000	  0.00	  0.00	
     2.22000	    0.000	  0.00	  0.00	
     2.23000	    0.000	  0.00	  0.00	
     2.24000	    0.000	  0.00	  0.00	
     2.25000	    0.000	  0.00	  0.00	
     2.26000	    0.000	  0.00	  0.00	
     2.27000	    0.000	  0.00	  0.00	
     2.28000	    0.000	  0.00	  0.00	
     2.29000	    0.000	  0.00	  0.00	
     2.30000	    0.000	  0.00	  0.00	
     2.31000	    0.000	  0.00	  0.00	
     2.32000	    0.000	  0.00	  0.00	
     2.33000	    0.000	  0.00	  0.00	
     2.34000	    0.000	  0.00	  0.00	
     2.35000	    0.000	  0.00	  0.00	
     2.36000	    0.000	  0.00	  0.00	
     2.37000	    0.000	  0.00	  0.00	
     2.38000	    0.000	  0.00	  0.00	
     2.39000	    0.000	  0.00	  0.00	
     2.40000	    0.000	  0.00	  0.00	
     2.41000	    0.000	  0.00	  0.00	
     2.42000	    0.000	  0.00	  0.00	
     2.43000	    0.000	  0.00	  0.00	
     2.44000	    0.000	  0.00	  0.00	
     2.45000	    0.000	  0.00	  0.00	
     2.46000	    0.000	  0.00	  0.00	
     2.47000	    0.000	  0.00	  0.00	
     2.48000	    0.000	  0.00	  0.00	
     2.49000	    0.000	  0.00	  0.00	
     2.50000	    0.000	  0.00	  0.00	
     2.51000	    0.000	  0.00	  0.00	
     2.52000	    0.000	  0.00	  0.00	
     2.53000	    0.000	  0.00	  0.00	
     2.54000	    0.000	  0.00	  0.00	
     2.55000	    0.000	  0.00	  0.00	
     2.56000	    0.000	  0.00	  0.00	
     2.57000	    0.000	  0.00	  0.00	
     2.58000	    0.000	  0.00	  0.00	
     2.59000	    0.000	  0.00	  0.00	
     2.60000	    0.000	  0.00	  0.00	
     2.61000	    0.000	  0.00	  0.00	
     2.62000	    0.000	  0.00	  0.00	
     2.63000	    0.000	  0.00	  0.00	
     2.64000	    0.000	  0.00	  0.00	
     2.65000	    0.000	  0.00	  0.00	
     2.66000	    0.000	  0.00	  0.00	
     2.67000	    0.000	  0.00	  0.00	
     2.68000	    0.000	  0.00	  0.00	
     2.69000	    0.000	  0.00	  0.00	
     2.70000	    0.000	  0.00	  0.00	
     2.71000	    0.000	  0.00	  0.00	
     2.72000	    0.000	  0.00	  0.00	
     2.73000	    0.000	  0.00	  0.00	
     2.74000	    0.000	  0.00	  0.00	
     2.75000	    0.000	  0.00	  0.00	
     2.76000	    0.000	  0.00	  0.00	
     2.77000	    0.000	  0.00	  0.00	
     2.78000	    0.000	  0.00	  0.00	
     2.79000	    0.000	  0.00	  0.00	
     2.80000	    0.000	  0.00	  0.00	
     2.81000	    0.000	  0.00	  0.00	
     2.82000	    0.000	  0.00	  0.00	
     2.83000	    0.000	  0.00	  0.00	
     2.84000	    0.000	  0.00	  0.00	
     2.85000	    0.000	  0.00	  0.00	
     2.86000	    0.000	  0.00	  0.00	
     2.87000	    0.000	  0.00	  0.00	
     2.88000	    0.000	  0.00	  0.00	
     2.89000	    0.000	  0.00	  0.00	
     2.90000	    0.000	  0.00	  0.00	
     2.91000	    0.000	  0.00	  0.00	
     2.92000	    0.000	  0.00	  0.00	
     2.93000	    0.000	  0.00	  0.00	
     2.94000	    0.000	  0.00	  0.00	
     2.95000	    0.000	  0.00	  0.00	
     2.96000	    0.000	  0.00	  0.00	
     2.97000	    0.000	  0.00	  0.00	
     2.98000	    0.000	  0.00	  0.00	
     2.99000	    0.000	  0.00	  0.00	
     3.00000	    0.000	  0.00	  0.00	
     3.01000	    0.000	  0.00	  0.00	
     3.02000	    0.000	  0.00	  0.00	
     3.03000	    0.000	  0.00	  0.00	
     3.04000	    0.000	  0.00	  0.00	
     3.05000	    0.000	  0.00	  0.00	
     3.06000	    0.000	  0.00	  0.00	
     3.07000	    0.000	  0.00	  0.00	
     3.08000	    0.000	  0.00	  0.00	
     3.09000	    0.000	  0.00	  0.00	
     3.10000	    0.000	  0.00	  0.00	
     3.11000	    0.000	  0.00	  0.00	
     3.12000	    0.000	  0.00	  0.00	
     3.13000	    0.000	  0.00	  0.00	
     3.14000	    0.000	  0.00	  0.00	
     3.15000	    0.000	  0.00	  0.00	
     3.16000	    0.000	  0.00	  0.00	
     3.17000	    0.000	  0.00	  0.00	
     3.18000	    0.000	  0.00	  0.00	
     3.19000	    0.000	  0.00	  0.00	
     3.20000	    0.000	  0.00	  0.00	
     3.21000	    0.000	  0.00	  0.00	
     3.22000	    0.000	  0.00	  0.00	
     3.23000	    0.000	  0.00	  0.00	
     3.24000	    0.000	  0.00	  0.00	
     3.25000	    0.000	  0.00	  0.00	
     3.26000	    0.000	  0.00	  0.00	
     3.27000	    0.000	  0.00	  0.00	
     3.28000	    0.000	  0.00	  0.00	
     3.29000	    0.000	  0.00	  0.00	
     3.30000	    0.000	  0.00	  0.00	
     3.31000	    0.000	  0.00	  0.00	
     3.32000	    2.000	 35.00	135.00	
     3.33000	    4.000	 25.00	135.00	
     3.34000	    4.000	 25.00	135.00	
     3.35000	    4.000	 25.00	135.00	
     3.36000	    5.000	 25.00	135.00	
     3.37000	    5.000	 25.00	135.00	
     3.38000	    5.500	 25.91	135.00	
     3.39000	    6.500	 25.77	135.00	
     3.40000	    6.500	 25.77	135.00	
     3.41000	    7.000	 25.00	135.00	
     3.42000	    7.000	 25.00	135.00	
     3.43000	    7.500	 25.67	135.00	
     3.44000	    8.000	 26.25	135.00	
     3.45000	    8.000	 26.25	135.00	
     3.46000	    8.000	 26.25	135.00	
     3.47000	    8.000	 26.25	135.00	
     3.48000	    8.000	 26.25	135.00	
     3.49000	    8.500	 26.76	135.00	
     3.50000	    8.500	 26.76	135.00	
     3.51000	   10.500	 24.52	133.10	
     3.52000	   11.000	 24.09	133.18	
     3.53000	   11.000	 24.09	133.18	
     3.54000	   10.500	 24.52	133.10	
     3.55000	   11.000	 24.09	133.18	
     3.56000	   11.000	 24.09	133.18	
     3.57000	   10.500	 24.52	133.10	
     3.58000	   10.500	 23.57	133.10	
     3.59000	   10.000	 24.00	133.00	
     3.60000	   10.500	 23.57	133.10	
     3.61000	    8.500	 25.59	135.00	
     3.62000	    8.500	 25.59	135.00	
     3.63000	    8.500	 25.59	135.00	
     3.64000	    8.500	 25.59	135.00	
     3.65000	    8.500	 25.59	135.00	
     3.66000	    9.000	 26.11	135.00	
     3.67000	    8.500	 26.76	135.00	
     3.68000	    8.500	 26.76	135.00	
     3.69000	    9.000	 27.22	135.00	
     3.70000	    9.000	 27.22	135.00	
     3.71000	    9.000	 27.22	135.00	
     3.72000	    9.500	 27.63	135.00	
     3.73000	    9.500	 27.63	135.00	
     3.74000	    9.500	 27.63	135.00	
     3.75000	    9.500	 27.63	135.00	
     3.76000	   10.000	 28.00	135.00	
     3.77000	   10.000	 28.00	135.00	
     3.78000	   10.500	 28.33	135.00	
     3.79000	   10.500	 28.33	135.00	
     3.80000	   10.500	 28.33	135.00	
     3.81000	   10.500	 28.33	135.00	
     3.82000	   10.500	 28.33	135.00	
     3.83000	   10.500	 28.33	135.00	
     3.84000	   10.500	 28.33	135.00	
     3.85000	   10.500	 28.33	135.00	
     3.86000	   10.500	 28.33	135.00	
     3.87000	   11.000	 28.64	135.00	
     3.88000	   10.500	 28.33	135.00	
     3.89000	   11.000	 28.64	135.00	
     3.90000	   11.000	 28.64	135.00	
     3.91000	   11.000	 28.64	135.00	
     3.92000	   11.000	 28.64	135.00	
     3.93000	   11.000	 28.64	135.00	
     3.94000	   11.000	 28.64	135.00	
     3.95000	   11.500	 28.91	135.00	
     3.96000	   13.500	 26.85	136.48	
     3.97000	   13.500	 26.85	136.48	
     3.98000	   13.500	 26.85	136.48	
     3.99000	   14.000	 26.43	136.43	
     4.00000	   13.500	 26.85	136.48	
     4.01000	   14.500	 26.72	136.38	
     4.02000	   14.000	 26.43	136.43	
     4.03000	   14.000	 26.43	136.43	
     4.04000	   14.500	 26.03	136.72	
     4.05000	   14.500	 26.03	136.72	
     4.06000	   14.000	 26.43	136.79	
     4.07000	   14.500	 26.03	136.72	
     4.08000	   14.500	 26.03	136.72	
     4.09000	   14.500	 26.03	136.72	
     4.10000	   14.500	 26.03	136.72	
     4.11000	   14.500	 26.03	136.72	
     4.12000	   14.500	 26.03	136.72	
     4.13000	   14.500	 26.03	136.72	
     4.14000	   14.500	 26.03	136.72	
     4.15000	   14.500	 26.03	136.72	
     4.16000	   14.500	 26.03	136.72	
     4.17000	   14.500	 26.03	136.72	
     4.18000	   14.500	 26.03	136.72	
     4.19000	   14.000	 25.71	136.79	
     4.20000	   14.000	 25.71	136.79	
     4.21000	   14.000	 25.71	136.79	
     4.22000	   14.000	 25.71	136.79	
     4.23000	   14.000	 25.71	136.79	
     4.24000	   14.000	 25.71	136.79	
     4.25000	   13.500	 25.37	136.85	
     4.26000	   13.500	 25.37	136.85	
     4.27000	   13.500	 25.37	136.85	
     4.28000	   13.500	 25.37	136.85	
     4.29000	   13.500	 25.37	136.85	
     4.30000	   13.500	 25.37	136.85	
     4.31000	   13.500	 25.37	136.85	
     4.32000	   13.500	 25.37	136.85	
     4.33000	   13.500	 25.37	136.85	
     4.34000	   13.500	 25.37	136.85	
     4.35000	   13.500	 25.37	136.85	
     4.36000	   14.000	 25.00	137.14	
     4.37000	   14.000	 25.00	137.14	
     4.38000	   14.000	 25.00	137.14	
     4.39000	   14.000	 25.00	137.14	
     4.40000	   14.000	 25.00	137.14	
     4.41000	   14.000	 25.00	137.14	
     4.42000	   14.000	 25.00	137.14	
     4.43000	   14.000	 25.00	137.14	
     4.44000	   14.000	 25.00	137.14	
     4.45000	   14.500	 24.66	137.41	
     4.46000	   14.500	 24.66	137.41	
     4.47000	   14.500	 24.66	137.41	
     4.48000	   14.500	 24.66	137.41	
     4.49000	   14.500	 24.66	137.41	
     4.50000	   15.000	 24.33	137.33	
     4.51000	   15.000	 24.33	137.33	
     4.52000	   15.000	 24.33	137.33	
     4.53000	   17.500	 24.71	137.00	
     4.54000	   15.500	 24.68	137.26	
     4.55000	   15.000	 24.33	137.33	
     4.56000	   15.500	 24.68	137.26	
     4.57000	   15.500	 24.68	137.26	
     4.58000	   15.500	 24.68	137.26	
     4.59000	   15.500	 24.68	137.26	
     4.60000	   15.500	 24.68	137.26	
     4.61000	   15.500	 24.68	137.26	
     4.62000	   16.000	 25.00	137.19	
     4.63000	   16.000	 25.00	137.19	
     4.64000	   16.000	 25.00	137.19	
     4.65000	   16.000	 25.00	137.19	
     4.66000	   16.500	 24.70	137.12	
     4.67000	   16.000	 25.00	137.19	
     4.68000	   16.500	 24.70	137.12	
     4.69000	   16.000	 25.00	137.19	
     4.70000	   16.500	 24.70	137.12	
     4.71000	   16.000	 25.00	137.19	
     4.72000	   16.000	 25.00	137.19	
     4.73000	   16.000	 25.00	137.19	
     4.74000	   16.000	 25.00	137.19	
     4.75000	   16.000	 25.00	137.19	
     4.76000	   16.000	 25.00	137.19	
     4.77000	   16.000	 25.00	137.19	
     4.78000	   16.500	 25.30	137.12	
     4.79000	   16.000	 25.00	137.19	
     4.80000	   16.000	 25.00	137.19	
     4.81000	   16.000	 25.00	137.19	
     4.82000	   16.000	 25.00	137.19	
     4.83000	   16.000	 25.00	137.19	
     4.84000	   16.000	 25.00	137.19	
     4.85000	   16.000	 25.00	137.19	
     4.86000	   15.500	 25.32	136.94	
     4.87000	   15.500	 25.32	136.94	
     4.88000	   15.500	 25.32	136.94	
     4.89000	   15.000	 25.00	137.00	
     4.90000	   15.000	 25.00	137.00	
     4.91000	   15.000	 25.00	137.00	
     4.92000	   15.000	 25.00	137.00	
     4.93000	   15.500	 25.32	136.94	
     4.94000	   15.500	 25.32	136.94	
     4.95000	   16.000	 25.00	137.19	
     4.96000	   16.500	 25.30	137.12	
     4.97000	   16.500	 25.30	137.12	
     4.98000	   17.500	 24.71	137.29	
     4.99000	   17.500	 24.71	137.29	
     5.00000	   17.500	 24.71	137.29	
     5.01000	   17.500	 24.71	137.29	
     5.02000	   18.000	 25.00	137.22	
     5.03000	   18.000	 25.00	137.22	
     5.04000	   18.000	 25.00	137.22	
     5.05000	   18.500	 24.73	137.43	
     5.06000	   18.500	 24.73	137.43	
     5.07000	   18.000	 25.00	137.22	
     5.08000	   18.000	 25.00	137.22	
     5.09000	   18.000	 25.00	137.22	
     5.10000	   18.000	 25.00	137.22	
     5.11000	   19.500	 32.95	135.00	
     5.12000	   20.000	 32.50	135.00	
     5.13000	   19.500	 32.95	135.00	
     5.14000	   20.000	 32.50	135.00	
     5.15000	   19.500	 32.95	134.74	
     5.16000	   19.000	 33.42	134.74	
     5.17000	   19.500	 32.95	134.74	
     5.18000	   19.000	 33.42	134.74	
     5.19000	   19.500	 32.95	134.74	
     5.20000	   20.000	 34.75	134.25	
     5.21000	   21.500	 40.81	131.51	
     5.22000	   21.500	 40.81	131.51	
     5.23000	   21.500	 40.81	131.51	
     5.24000	   21.000	 40.95	131.43	
     5.25000	   21.000	 43.10	130.71	
     5.26000	   22.500	 47.00	127.44	
     5.27000	   25.500	 56.57	122.65	
     5.28000	   25.500	 57.94	122.06	
     5.29000	   27.000	 62.78	120.74	
     5.30000	   26.500	 64.81	119.91	
     5.31000	   24.000	 69.58	117.50	
     5.32000	   23.500	 71.81	116.28	
     5.33000	   23.000	 74.13	115.22	
     5.34000	   23.500	 75.85	114.57	
     5.35000	   22.500	 79.67	113.22	
     5.36000	   25.500	 82.65	108.73	
     5.37000	   26.000	 88.46	104.23	
     5.38000	   24.000	 94.58	101.46	
     5.39000	   24.500	 94.59	101.53	
     5.40000	   25.000	 94.80	101.80	
     5.41000	   25.500	 95.00	101.86	
     5.42000	   25.500	 95.00	101.86	
     5.43000	   26.000	 95.19	101.92	
     5.44000	   26.500	 95.19	101.79	
     5.45000	   26.500	 95.19	101.79	
     5.46000	   27.000	 95.37	102.04	
     5.47000	   26.500	 95.38	102.17	
     5.48000	   26.500	 95.38	102.17	
     5.49000	   27.000	 95.37	102.41	
     5.50000	   27.000	 95.37	102.41	
     5.51000	   29.000	 94.66	102.59	
     5.52000	   29.500	 94.66	102.63	
     5.53000	   29.000	 94.66	102.59	
     5.54000	   29.000	 94.66	102.59	
     5.55000	   29.000	 94.66	102.59	
     5.56000	   29.000	 94.66	102.59	
     5.57000	   28.000	 94.46	102.14	
     5.58000	   28.000	 94.29	102.32	
     5.59000	   28.000	 94.29	102.32	
     5.60000	   28.000	 94.29	102.32	
     5.61000	   27.500	 94.27	102.09	
     5.62000	   28.000	 94.29	102.32	
     5.63000	   28.000	 94.29	102.32	
     5.64000	   27.500	 94.09	102.27	
     5.65000	   27.500	 94.09	102.27	
     5.66000	   28.000	 93.75	102.14	
     5.67000	   27.000	 93.89	102.04	
     5.68000	   25.500	 93.43	103.24	
     5.69000	   25.500	 93.43	103.24	
     5.70000	   25.500	 93.43	103.24	
     5.71000	   25.500	 94.02	103.63	
     5.72000	   26.000	 93.27	103.27	
     5.73000	   26.500	 93.49	103.49	
     5.74000	   26.000	 93.27	103.27	
     5.75000	   26.500	 93.49	103.49	
     5.76000	   26.000	 93.27	103.27	
     5.77000	   26.000	 93.27	103.27	
     5.78000	   26.000	 93.27	103.27	
     5.79000	   26.500	 93.11	103.11	
     5.80000	   27.000	 93.15	103.33	
     5.81000	   26.500	 92.92	103.30	
     5.82000	   26.500	 92.92	103.30	
     5.83000	   26.500	 92.92	103.30	
     5.84000	   26.000	 92.69	103.08	
     5.85000	   26.000	 92.69	103.08	
     5.86000	   26.000	 92.69	103.08	
     5.87000	   26.000	 92.69	103.08	
     5.88000	   25.500	 92.84	103.24	
     5.89000	   27.500	 92.64	104.64	
     5.90000	   25.500	 92.45	103.04	
     5.91000	   25.000	 92.60	103.20	
     5.92000	   27.500	 91.91	106.09	
     5.93000	   27.500	 91.91	106.09	
     5.94000	   25.500	 93.24	106.18	
     5.95000	   25.500	 93.24	106.18	
     5.96000	   27.500	 91.91	106.09	
     5.97000	   27.500	 91.91	106.09	
     5.98000	   28.000	 91.79	106.07	
     5.99000	   28.000	 91.79	106.07	
     6.00000	   28.000	 91.79	106.07	
     6.01000	   28.000	 91.79	106.07	
     6.02000	   28.000	 91.79	106.07	
     6.03000	   29.500	 92.46	107.37	
     6.04000	   30.000	 92.67	107.33	
     6.05000	   29.500	 92.46	107.37	
     6.06000	   27.500	 91.55	106.09	
     6.07000	   27.500	 91.55	106.09	
     6.08000	   27.000	 91.48	106.30	
     6.09000	   30.000	 92.17	107.33	
     6.10000	   29.500	 92.46	107.37	
     6.11000	   31.000	 91.94	108.06	
     6.12000	   29.500	 92.46	107.37	
     6.13000	   33.000	 91.82	107.88	
     6.14000	   33.500	 92.01	108.28	
     6.15000	   34.000	 91.91	108.24	
     6.16000	   35.500	 92.04	107.96	
     6.17000	   38.500	 91.88	106.95	
     6.18000	   36.500	 92.26	108.15	
     6.19000	   37.500	 92.20	108.07	
     6.20000	   40.500	 91.67	106.73	
     6.21000	   41.000	 91.59	106.71	
     6.22000	   41.500	 91.75	106.69	
     6.23000	   41.500	 91.75	106.69	
     6.24000	   43.000	 91.51	106.51	
     6.25000	   43.000	 91.74	106.74	
     6.26000	   44.500	 91.63	106.57	
     6.27000	   46.000	 91.63	106.85	
     6.28000	   48.000	 90.52	106.04	
     6.29000	   49.500	 90.45	106.01	
     6.30000	   49.500	 90.45	106.01	
     6.31000	   50.000	 90.40	106.00	
     6.32000	   51.000	 90.29	105.98	
     6.33000	   51.000	 90.29	105.98	
     6.34000	   52.500	 90.24	106.05	
     6.35000	   52.000	 90.29	106.15	
     6.36000	   52.500	 90.24	106.14	
     6.37000	   53.000	 90.19	106.04	
     6.38000	   54.000	 90.37	106.02	
     6.39000	   59.000	 89.07	105.17	
     6.40000	   55.000	 90.45	105.91	
     6.41000	   56.500	 89.96	105.35	
     6.42000	   57.500	 89.96	105.35	
     6.43000	   60.000	 89.25	105.50	
     6.44000	   59.000	 89.07	105.17	
     6.45000	   59.000	 89.07	105.17	
     6.46000	   60.000	 89.25	105.33	
     6.47000	   61.500	 89.31	104.67	
     6.48000	   57.000	 89.91	105.18	
     6.49000	   55.500	 90.50	106.08	
     6.50000	   59.000	 89.07	105.17	
     6.51000	   58.000	 90.09	105.52	
     6.52000	   60.500	 89.30	105.25	
     6.53000	   64.500	 89.11	105.16	
     6.54000	   62.000	 89.52	104.68	
     6.55000	   63.000	 89.60	104.76	
     6.56000	   64.500	 89.11	105.16	
     6.57000	   61.000	 90.33	104.84	
     6.58000	   63.500	 89.88	105.08	
     6.59000	   63.500	 89.57	104.76	
     6.60000	   62.500	 89.40	104.44	
     6.61000	   65.000	 89.08	104.92	
     6.62000	   65.000	 88.85	104.77	
     6.63000	   64.000	 89.45	104.77	
     6.64000	   64.500	 88.95	104.77	
     6.65000	   65.000	 89.08	104.92	
     6.66000	   65.000	 89.00	104.92	
     6.67000	   65.500	 89.12	105.08	
     6.68000	   63.500	 89.33	104.61	
     6.69000	   63.000	 89.60	104.76	
     6.70000	   63.000	 89.29	104.44	
     6.71000	   65.000	 88.85	104.77	
     6.72000	   65.000	 88.85	104.77	
     6.73000	   65.500	 88.89	104.69	
     6.74000	   65.500	 88.89	104.69	
     6.75000	   63.500	 89.33	104.37	
     6.76000	   63.500	 89.33	104.37	
     6.77000	   64.000	 89.22	104.22	
     6.78000	   61.500	 90.12	104.35	
     6.79000	   65.500	 89.27	104.16	
     6.80000	   64.500	 89.42	104.38	
     6.81000	   67.500	 88.78	104.26	
     6.82000	   66.000	 89.09	103.79	
     6.83000	   67.500	 89.15	103.59	
     6.84000	   69.500	 87.23	101.69	
     6.85000	   71.500	 86.96	101.99	
     6.86000	   73.000	 86.44	101.44	
     6.87000	   70.500	 86.63	100.96	
     6.88000	   72.000	 86.25	100.56	
     6.89000	   74.000	 85.95	100.95	
     6.90000	   75.000	 85.93	100.73	
     6.91000	   75.500	 85.93	100.63	
     6.92000	   75.000	 86.07	 99.93	
     6.93000	   77.000	 85.65	100.32	
     6.94000	   77.500	 85.26	 99.90	
     6.95000	   78.000	 85.38	 99.94	
     6.96000	   75.500	 85.53	 99.50	
     6.97000	   77.000	 85.13	 99.81	
     6.98000	   77.000	 85.26	 99.87	
     6.99000	   77.000	 85.26	 99.87	
     7.00000	   76.000	 85.07	 99.74	
     7.01000	   73.500	 85.27	 99.15	
     7.02000	   74.000	 85.41	 99.19	
     7.03000	   76.000	 85.13	 99.61	
     7.04000	   77.000	 85.32	 99.61	
     7.05000	   76.000	 85.13	 99.67	
     7.06000	   76.500	 85.26	 99.71	
     7.07000	   77.000	 85.32	 99.87	
     7.08000	   76.000	 85.13	 99.61	
     7.09000	   79.000	 83.73	 97.85	
     7.10000	   80.000	 83.81	 97.94	
     7.11000	   80.000	 83.88	 97.88	
     7.12000	   80.000	 83.88	 97.88	
     7.13000	   80.500	 83.88	 97.86	
     7.14000	   81.000	 83.95	 98.02	
     7.15000	   77.500	 85.26	 99.65	
     7.16000	   82.500	 82.64	 96.64	
     7.17000	   78.000	 85.26	 99.62	
     7.18000	   80.500	 83.94	 98.48	
     7.19000	   80.000	 82.25	 96.31	
     7.20000	   80.500	 84.07	 98.42	
     7.21000	   82.000	 84.09	 98.60	
     7.22000	   82.000	 84.09	 98.60	
     7.23000	   82.500	 84.03	 98.64	
     7.24000	   82.000	 84.15	 98.60	
     7.25000	   82.500	 84.33	 99.12	
     7.26000	   83.000	 84.28	 99.10	
     7.27000	   83.000	 84.28	 99.10	
     7.28000	   83.000	 84.16	 98.98	
     7.29000	   84.000	 83.81	 98.69	
     7.30000	   83.000	 83.98	 98.98	
     7.31000	   81.500	 83.16	 98.01	
     7.32000	   82.500	 83.12	 98.03	
     7.33000	   82.000	 83.41	 98.35	
     7.34000	   82.000	 83.17	 98.29	
     7.35000	   82.000	 82.74	 97.87	
     7.36000	   81.500	 82.67	 97.88	
     7.37000	   82.000	 82.74	 97.87	
     7.38000	   81.500	 82.61	 97.82	
     7.39000	   82.000	 82.56	 97.74	
     7.40000	   84.000	 81.67	 96.49	
     7.41000	   84.000	 81.55	 96.37	
     7.42000	   89.000	 80.45	 94.94	
     7.43000	   88.500	 80.14	 94.83	
     7.44000	   88.000	 80.06	 94.66	
     7.45000	   88.500	 80.14	 94.83	
     7.46000	   88.500	 80.14	 94.83	
     7.47000	   89.500	 80.14	 94.78	
     7.48000	   87.000	 79.66	 94.60	
     7.49000	   88.000	 79.77	 94.49	
     7.50000	   89.000	 79.83	 94.66	
     7.51000	   89.500	 79.41	 93.99	
     7.52000	   90.500	 79.59	 94.39	
     7.53000	   91.000	 79.45	 94.12	
     7.54000	   91.500	 79.48	 94.45	
     7.55000	   91.500	 79.37	 94.02	
     7.56000	   92.000	 79.46	 94.18	
     7.57000	   92.500	 79.11	 93.97	
     7.58000	   95.000	 78.05	 92.68	
     7.59000	   93.000	 79.19	 94.14	
     7.60000	   93.000	 79.14	 94.03	
     7.61000	   93.500	 79.06	 93.98	
     7.62000	   97.000	 79.38	 93.71	
     7.63000	   99.000	 78.13	 92.27	
     7.64000	   97.000	 79.23	 93.66	
     7.65000	  100.500	 78.78	 93.91	
     7.66000	  103.500	 77.80	 92.58	
     7.67000	  103.500	 77.80	 92.58	
     7.68000	  107.000	 77.24	 91.78	
     7.69000	  109.000	 77.52	 91.97	
     7.70000	  109.500	 77.51	 92.03	
     7.71000	  111.000	 77.66	 91.98	
     7.72000	  112.000	 77.59	 91.96	
     7.73000	  116.000	 77.33	 91.38	
     7.74000	  121.000	 76.82	 90.08	
     7.75000	  120.000	 77.00	 90.67	
     7.76000	  122.500	 76.76	 90.10	
     7.77000	  126.500	 75.20	 88.36	
     7.78000	  129.500	 75.19	 89.17	
     7.79000	  128.500	 74.81	 87.88	
     7.80000	  129.000	 74.92	 88.10	
     7.81000	  127.500	 75.59	 88.92	
     7.82000	  130.000	 74.73	 88.08	
     7.83000	  131.000	 74.96	 89.05	
     7.84000	  132.000	 75.11	 89.17	
     7.85000	  135.500	 74.59	 88.39	
     7.86000	  137.000	 74.74	 88.39	
     7.87000	  138.000	 74.67	 88.41	
     7.88000	  137.500	 74.78	 88.53	
     7.89000	  138.000	 74.86	 88.62	
     7.90000	  139.500	 74.78	 88.66	
     7.91000	  140.000	 74.82	 88.46	
     7.92000	  144.500	 74.97	 88.43	
     7.93000	  144.500	 75.07	 88.56	
     7.94000	  146.500	 75.10	 88.58	
     7.95000	  147.500	 75.14	 88.69	
     7.96000	  149.500	 75.30	 88.71	
     7.97000	  151.500	 75.17	 88.66	
     7.98000	  152.500	 75.07	 88.48	
     7.99000	  154.500	 75.06	 88.46	
     8.00000	  156.000	 75.00	 88.30	
     8.01000	  156.500	 75.03	 88.32	
     8.02000	  161.000	 75.06	 88.32	
     8.03000	  164.500	 75.18	 88.28	
     8.04000	  166.500	 75.03	 88.12	
     8.05000	  170.500	 74.65	 87.70	
     8.06000	  172.500	 74.71	 87.70	
     8.07000	  175.500	 74.57	 87.54	
     8.08000	  177.500	 74.44	 87.08	
     8.09000	  182.000	 74.26	 87.17	
     8.10000	  182.500	 74.51	 87.11	
     8.11000	  184.500	 74.67	 87.33	
     8.12000	  189.500	 74.34	 87.06	
     8.13000	  190.500	 74.40	 86.97	
     8.14000	  192.000	 74.32	 86.90	
     8.15000	  192.500	 74.32	 86.82	
     8.16000	  194.000	 74.23	 86.75	
     8.17000	  195.500	 74.34	 86.79	
     8.18000	  197.000	 74.19	 86.57	
     8.19000	  197.500	 74.42	 86.70	
     8.20000	  200.500	 74.05	 86.30	
     8.21000	  202.500	 74.14	 86.21	
     8.22000	  204.500	 74.19	 86.42	
     8.23000	  209.000	 74.11	 86.46	
     8.24000	  210.000	 74.14	 85.98	
     8.25000	  209.500	 73.78	 85.74	
     8.26000	  213.000	 73.94	 86.08	
     8.27000	  215.000	 73.86	 85.53	
     8.28000	  215.000	 73.98	 85.60	
     8.29000	  220.500	 73.78	 85.52	
     8.30000	  223.000	 73.99	 85.56	
     8.31000	  226.000	 74.16	 85.55	
     8.32000	  228.500	 74.06	 85.59	
     8.33000	  228.000	 74.01	 85.50	
     8.34000	  232.500	 74.08	 85.19	
     8.35000	  236.500	 74.01	 85.08	
     8.36000	  238.500	 74.01	 85.00	
     8.37000	  241.500	 73.96	 84.96	
     8.38000	  244.000	 73.95	 84.98	
     8.39000	  246.500	 73.97	 84.94	
     8.40000	  250.000	 74.02	 84.92	
     8.41000	  254.000	 73.74	 84.57	
     8.42000	  261.000	 73.75	 84.64	
     8.43000	  262.500	 73.78	 84.79	
     8.44000	  271.000	 73.87	 84.67	
     8.45000	  279.000	 74.19	 84.95	
     8.46000	  296.500	 74.34	 85.17	
     8.47000	  309.500	 74.68	 85.48	
     8.48000	  323.500	 75.32	 86.07	
     8.49000	  334.500	 75.33	 86.03	
     8.50000	  346.000	 75.52	 85.95	
     8.51000	  350.000	 75.59	 85.93	
     8.52000	  353.500	 75.54	 85.89	
     8.53000	  355.500	 75.69	 85.98	
     8.54000	  354.500	 75.62	 85.89	
     8.55000	  353.000	 75.57	 85.86	
     8.56000	  349.500	 75.57	 85.96	
     8.57000	  347.000	 75.42	 85.72	
     8.58000	  342.500	 75.20	 85.54	
     8.59000	  338.000	 75.12	 85.28	
     8.60000	  331.000	 74.98	 85.12	
     8.61000	  328.000	 74.95	 85.05	
     8.62000	  325.500	 74.98	 85.02	
     8.63000	  323.500	 74.91	 84.91	
     8.64000	  319.500	 74.73	 84.77	
     8.65000	  311.000	 74.58	 84.63	
     8.66000	  304.500	 74.56	 84.47	
     8.67000	  295.500	 74.31	 84.36	
     8.68000	  287.500	 74.03	 84.25	
     8.69000	  275.500	 74.18	 84.11	
     8.70000	  271.000	 74.23	 84.23	
     8.71000	  267.000	 74.36	 84.44	
     8.72000	  260.500	 74.21	 84.73	
     8.73000	  254.500	 74.23	 84.67	
     8.74000	  249.000	 73.92	 84.48	
     8.75000	  246.500	 74.19	 84.55	
     8.76000	  242.000	 74.32	 84.71	
     8.77000	  239.500	 74.27	 84.75	
     8.78000	  237.000	 74.26	 84.77	
     8.79000	  234.000	 74.27	 84.72	
     8.80000	  231.000	 74.13	 84.68	
     8.81000	  227.000	 74.12	 84.32	
     8.82000	  225.500	 74.14	 84.22	
     8.83000	  225.500	 74.18	 84.31	
     8.84000	  225.500	 74.07	 84.25	
     8.85000	  227.000	 73.96	 84.16	
     8.86000	  224.000	 74.20	 84.33	
     8.87000	  222.500	 74.30	 84.48	
     8.88000	  220.500	 74.25	 84.32	
     8.89000	  219.000	 73.95	 84.09	
     8.90000	  215.000	 73.91	 83.98	
     8.91000	  211.500	 73.75	 83.84	
     8.92000	  206.500	 73.33	 83.57	
     8.93000	  203.500	 73.18	 83.16	
     8.94000	  188.000	 72.29	 82.95	
     8.95000	  174.500	 72.08	 82.82	
     8.96000	  150.500	 71.88	 83.47	
     8.97000	  128.000	 73.01	 84.22	
     8.98000	  117.500	 73.64	 85.26	
     8.99000	  119.500	 73.66	 86.13	
     9.00000	  145.000	 73.93	 86.14	
     9.01000	  192.500	 75.81	 87.18	
     9.02000	  250.500	 76.24	 87.10	
     9.03000	  300.500	 75.97	 85.97	
     9.04000	  357.500	 75.67	 84.99	
     9.05000	  400.000	 75.31	 83.72	
     9.06000	  440.500	 75.25	 83.00	
     9.07000	  468.500	 75.09	 82.31	
     9.08000	  486.000	 75.07	 81.97	
     9.09000	  492.000	 75.01	 81.80	
     9.10000	  492.000	 74.89	 81.67	
     9.11000	  485.500	 74.70	 81.37	
     9.12000	  476.500	 74.49	 81.17	
     9.13000	  464.500	 74.33	 81.12	
     9.14000	  449.000	 74.23	 81.26	
     9.15000	  429.000	 74.04	 81.46	
     9.16000	  411.000	 74.16	 81.86	
     9.17000	  394.000	 74.25	 82.28	
     9.18000	  379.000	 74.39	 82.68	
     9.19000	  370.000	 74.38	 82.78	
     9.20000	  355.000	 74.62	 83.39	
     9.21000	  343.000	 74.69	 83.59	
     9.22000	  334.000	 74.85	 83.98	
     9.23000	  326.000	 75.21	 84.65	
     9.24000	  327.500	 75.32	 84.82	
     9.25000	  325.000	 75.31	 84.78	
     9.26000	  321.000	 75.51	 85.02	
     9.27000	  317.000	 75.43	 84.95	
     9.28000	  308.500	 75.23	 84.81	
     9.29000	  300.000	 75.05	 84.67	
     9.30000	  290.500	 75.07	 84.72	
     9.31000	  279.000	 74.98	 84.53	
     9.32000	  268.500	 74.93	 84.61	
     9.33000	  256.000	 74.53	 84.14	
     9.34000	  245.500	 74.53	 84.47	
     9.35000	  237.000	 74.47	 84.49	
     9.36000	  233.000	 74.33	 84.27	
     9.37000	  227.500	 74.43	 84.76	
     9.38000	  219.000	 74.27	 84.82	
     9.39000	  213.000	 74.84	 85.40	
     9.40000	  209.500	 74.26	 85.02	
     9.41000	  201.000	 74.90	 85.47	
     9.42000	  196.000	 74.80	 85.51	
     9.43000	  197.000	 74.64	 85.61	
     9.44000	  188.000	 75.74	 86.44	
     9.45000	  186.500	 75.72	 86.74	
     9.46000	  179.000	 75.42	 86.31	
     9.47000	  181.000	 75.47	 86.30	
     9.48000	  175.500	 75.85	 86.60	
     9.49000	  173.500	 75.32	 86.44	
     9.50000	  170.000	 75.35	 86.38	
     9.51000	  167.000	 75.45	 86.62	
     9.52000	  161.500	 75.59	 87.01	
     9.53000	  161.000	 75.47	 86.77	
     9.54000	  156.500	 75.64	 86.95	
     9.55000	  157.500	 75.60	 87.00	
     9.56000	  154.500	 75.49	 87.04	
     9.57000	  153.000	 75.33	 86.76	
     9.58000	  148.500	 76.14	 87.63	
     9.59000	  149.500	 75.17	 86.54	
     9.60000	  148.500	 75.17	 86.62	
     9.61000	  146.500	 75.17	 86.74	
     9.62000	  140.500	 76.32	 87.46	
     9.63000	  138.000	 76.34	 87.36	
     9.64000	  136.000	 76.14	 87.21	
     9.65000	  136.500	 75.70	 87.27	
     9.66000	  134.500	 76.19	 87.19	
     9.67000	  131.000	 76.11	 87.44	
     9.68000	  129.500	 76.16	 87.55	
     9.69000	  126.000	 75.87	 87.58	
     9.70000	  125.000	 75.80	 87.52	
     9.71000	  122.000	 75.78	 87.54	
     9.72000	  119.000	 76.22	 88.36	
     9.73000	  115.000	 76.91	 89.26	
     9.74000	  111.000	 76.85	 89.10	
     9.75000	  107.500	 77.93	 90.53	
     9.76000	  104.000	 78.17	 90.34	
     9.77000	  103.000	 77.91	 91.31	
     9.78000	  101.000	 78.17	 91.58	
     9.79000	   96.500	 78.68	 91.42	
     9.80000	   96.500	 78.63	 91.74	
     9.81000	   91.000	 78.85	 91.76	
     9.82000	   91.500	 78.61	 92.10	
     9.83000	   88.000	 78.47	 91.42	
     9.84000	   86.500	 78.41	 91.99	
     9.85000	   83.000	 78.55	 91.27	
     9.86000	   83.500	 78.77	 92.49	
     9.87000	   80.000	 78.00	 91.38	
     9.88000	   83.000	 78.19	 91.75	
     9.89000	   80.000	 78.63	 91.63	
     9.90000	   77.500	 77.65	 90.87	
     9.91000	   77.500	 77.32	 91.32	
     9.92000	   72.500	 77.90	 91.07	
     9.93000	   72.000	 77.22	 90.28	
     9.94000	   70.500	 77.48	 91.31	
     9.95000	   63.500	 77.13	 90.83	
     9.96000	   62.500	 76.92	 90.76	
     9.97000	   61.500	 77.52	 91.91	
     9.98000	   56.000	 75.89	 90.09	
     9.99000	   56.500	 76.42	 90.93	
    10.00000	   54.500	 76.93	 91.97	
    10.01000	   50.500	 77.87	 92.72	
    10.02000	   47.500	 78.68	 92.58	
    10.03000	   44.000	 77.73	 92.27	
    10.04000	   42.500	 77.12	 91.47	
    10.05000	   36.500	 77.19	 91.03	
    10.06000	   30.000	 78.83	 93.83	
    10.07000	   30.000	 78.83	 93.83	
    10.08000	   18.500	 85.00	102.30	
    10.09000	    9.500	 84.47	105.53	
    10.10000	    5.000	 95.00	120.00	
    10.11000	    5.000	 95.00	120.00	
    10.12000	    4.500	 95.00	120.56	
    10.13000	    4.000	 95.00	120.00	
    10.14000	    2.000	 95.00	125.00	
    10.15000	    2.000	 95.00	125.00	
    10.16000	    2.000	 95.00	125.00	
    10.17000	    2.000	 95.00	125.00	
    10.18000	    0.000	  0.00	  0.00	
    10.19000	    0.000	  0.00	  0.00	
    10.20000	    0.000	  0.00	  0.00	
    10.21000	    0.000	  0.00	  0.00	
    10.22000	    0.000	  0.00	  0.00	
    10.23000	    0.000	  0.00	  0.00	
    10.24000	    0.000	  0.00	  0.00	
    10.25000	    0.000	  0.00	  0.00	
    10.26000	    0.000	  0.00	  0.00	
    10.27000	    0.000	  0.00	  0.00	
    10.28000	    0.000	  0.00	  0.00	
    10.29000	    0.000	  0.00	  0.00	
    10.30000	    0.000	  0.00	  0.00	
    10.31000	    0.000	  0.00	  0.00	
    10.32000	    0.000	  0.00	  0.00	
    10.33000	    0.000	  0.00	  0.00	
    10.34000	    0.000	  0.00	  0.00	
    10.35000	    0.000	  0.00	  0.00	
    10.36000	    0.000	  0.00	  0.00	
    10.37000	    0.000	  0.00	  0.00	
    10.38000	    0.000	  0.00	  0.00	
    10.39000	    0.000	  0.00	  0.00	
    10.40000	    0.000	  0.00	  0.00	
    10.41000	    0.000	  0.00	  0.00	
    10.42000	    0.000	  0.00	  0.00	
    10.43000	    0.000	  0.00	  0.00	
    10.44000	    0.000	  0.00	  0.00	
    10.45000	    0.000	  0.00	  0.00	
    10.46000	    0.000	  0.00	  0.00	
    10.47000	    0.000	  0.00	  0.00	
    10.48000	    0.000	  0.00	  0.00	
    10.49000	    0.000	  0.00	  0.00	
    10.50000	    0.000	  0.00	  0.00	
    10.51000	    0.000	  0.00	  0.00	
    10.52000	    0.000	  0.00	  0.00	
    10.53000	    0.000	  0.00	  0.00	
    10.54000	    0.000	  0.00	  0.00	
    10.55000	    0.000	  0.00	  0.00	
    10.56000	    0.000	  0.00	  0.00	
    10.57000	    0.000	  0.00	  0.00	
    10.58000	    0.000	  0.00	  0.00	
    10.59000	    0.000	  0.00	  0.00	
    10.60000	    0.000	  0.00	  0.00	
    10.61000	    0.000	  0.00	  0.00	
    10.62000	    0.000	  0.00	  0.00	
    10.63000	    0.000	  0.00	  0.00	
    10.64000	    0.000	  0.00	  0.00	
    10.65000	    0.000	  0.00	  0.00	
    10.66000	    0.000	  0.00	  0.00	
    10.67000	    0.000	  0.00	  0.00	
    10.68000	    0.000	  0.00	  0.00	
    10.69000	    0.000	  0.00	  0.00	
    10.70000	    0.000	  0.00	  0.00	
    10.71000	    0.000	  0.00	  0.00	
    10.72000	    0.000	  0.00	  0.00	
    10.73000	    0.000	  0.00	  0.00	
    10.74000	    0.000	  0.00	  0.00	
    10.75000	    0.000	  0.00	  0.00	
    10.76000	    0.000	  0.00	  0.00	
    10.77000	    0.000	  0.00	  0.00	
    10.78000	    0.000	  0.00	  0.00	
    10.79000	    0.000	  0.00	  0.00	
    10.80000	    0.000	  0.00	  0.00	
    10.81000	    0.000	  0.00	  0.00	
    10.82000	    0.000	  0.00	  0.00	
    10.83000	    0.000	  0.00	  0.00	
    10.84000	    0.000	  0.00	  0.00	
    10.85000	    0.000	  0.00	  0.00	
    10.86000	    0.000	  0.00	  0.00	
    10.87000	    0.000	  0.00	  0.00	
    10.88000	    0.000	  0.00	  0.00	
    10.89000	    0.000	  0.00	  0.00	
    10.90000	    0.000	  0.00	  0.00	
    10.91000	    0.000	  0.00	  0.00	
    10.92000	    0.000	  0.00	  0.00	
    10.93000	    0.000	  0.00	  0.00	
    10.94000	    0.000	  0.00	  0.00	
    10.95000	    0.000	  0.00	  0.00	
    10.96000	    0.000	  0.00	  0.00	
    10.97000	    0.000	  0.00	  0.00	
    10.98000	    0.000	  0.00	  0.00	
    10.99000	    0.000	  0.00	  0.00	
    11.00000	    0.000	  0.00	  0.00	
    11.01000	    0.000	  0.00	  0.00	
    11.02000	    0.000	  0.00	  0.00	
    11.03000	    0.000	  0.00	  0.00	
    11.04000	    0.000	  0.00	  0.00	
    11.05000	    0.000	  0.00	  0.00	
    11.06000	    0.000	  0.00	  0.00	
    11.07000	    0.000	  0.00	  0.00	
    11.08000	    0.000	  0.00	  0.00	
    11.09000	    0.000	  0.00	  0.00	
    11.10000	    0.000	  0.00	  0.00	
    11.11000	    0.000	  0.00	  0.00	
    11.12000	    0.000	  0.00	  0.00	
    11.13000	    0.000	  0.00	  0.00	
    11.14000	    0.000	  0.00	  0.00	
    11.15000	    0.000	  0.00	  0.00	
    11.16000	    0.000	  0.00	  0.00	
    11.17000	    0.000	  0.00	  0.00	
    11.18000	    0.000	  0.00	  0.00	
    11.19000	    0.000	  0.00	  0.00	
    11.20000	    0.000	  0.00	  0.00	
    11.21000	    0.000	  0.00	  0.00	
    11.22000	    0.000	  0.00	  0.00	
    11.23000	    0.000	  0.00	  0.00	
    11.24000	    0.000	  0.00	  0.00	
    11.25000	    0.000	  0.00	  0.00	
    11.26000	    0.000	  0.00	  0.00	
    11.27000	    0.000	  0.00	  0.00	
    11.28000	    0.000	  0.00	  0.00	
