file name:  S2128_09_1_2_MPa_PXF440_220809_282.mat	date/time  01.09.22 17.37
sensor type:  s2128_09_1_2_mpa_pxf440_220809 
force time integral[N*s]:      1412.880
pressure time integral [kPa*s]:      547.500
total time [secs]:  13.180	time per frame [secs]:  0.01000	scanning rate [Hz]:   100


time[secs]    	force[N]   	x[mm]     	y[mm] 	

     0.01000	    0.000	  0.00	  0.00	
     0.02000	    0.000	  0.00	  0.00	
     0.03000	    0.000	  0.00	  0.00	
     0.04000	    0.000	  0.00	  0.00	
     0.05000	    0.000	  0.00	  0.00	
     0.06000	    0.000	  0.00	  0.00	
     0.07000	    0.000	  0.00	  0.00	
     0.08000	    0.000	  0.00	  0.00	
     0.09000	    0.000	  0.00	  0.00	
     0.10000	    0.000	  0.00	  0.00	
     0.11000	    0.000	  0.00	  0.00	
     0.12000	    0.000	  0.00	  0.00	
     0.13000	    0.000	  0.00	  0.00	
     0.14000	    0.000	  0.00	  0.00	
     0.15000	    0.000	  0.00	  0.00	
     0.16000	    0.000	  0.00	  0.00	
     0.17000	    0.000	  0.00	  0.00	
     0.18000	    0.000	  0.00	  0.00	
     0.19000	    0.000	  0.00	  0.00	
     0.20000	    0.000	  0.00	  0.00	
     0.21000	    0.000	  0.00	  0.00	
     0.22000	    0.000	  0.00	  0.00	
     0.23000	    0.000	  0.00	  0.00	
     0.24000	    0.000	  0.00	  0.00	
     0.25000	    0.000	  0.00	  0.00	
     0.26000	    0.000	  0.00	  0.00	
     0.27000	    0.000	  0.00	  0.00	
     0.28000	    0.000	  0.00	  0.00	
     0.29000	    0.000	  0.00	  0.00	
     0.30000	    0.000	  0.00	  0.00	
     0.31000	    0.000	  0.00	  0.00	
     0.32000	    0.000	  0.00	  0.00	
     0.33000	    0.000	  0.00	  0.00	
     0.34000	    0.000	  0.00	  0.00	
     0.35000	    0.000	  0.00	  0.00	
     0.36000	    0.000	  0.00	  0.00	
     0.37000	    0.000	  0.00	  0.00	
     0.38000	    0.000	  0.00	  0.00	
     0.39000	    0.000	  0.00	  0.00	
     0.40000	    0.000	  0.00	  0.00	
     0.41000	    0.000	  0.00	  0.00	
     0.42000	    0.000	  0.00	  0.00	
     0.43000	    0.000	  0.00	  0.00	
     0.44000	    0.000	  0.00	  0.00	
     0.45000	    0.000	  0.00	  0.00	
     0.46000	    0.000	  0.00	  0.00	
     0.47000	    0.000	  0.00	  0.00	
     0.48000	    0.000	  0.00	  0.00	
     0.49000	    0.000	  0.00	  0.00	
     0.50000	    0.000	  0.00	  0.00	
     0.51000	    0.000	  0.00	  0.00	
     0.52000	    0.000	  0.00	  0.00	
     0.53000	    0.000	  0.00	  0.00	
     0.54000	    0.000	  0.00	  0.00	
     0.55000	    0.000	  0.00	  0.00	
     0.56000	    0.000	  0.00	  0.00	
     0.57000	    0.000	  0.00	  0.00	
     0.58000	    0.000	  0.00	  0.00	
     0.59000	    0.000	  0.00	  0.00	
     0.60000	    0.000	  0.00	  0.00	
     0.61000	    0.000	  0.00	  0.00	
     0.62000	    0.000	  0.00	  0.00	
     0.63000	    0.000	  0.00	  0.00	
     0.64000	    0.000	  0.00	  0.00	
     0.65000	    0.000	  0.00	  0.00	
     0.66000	    0.000	  0.00	  0.00	
     0.67000	    0.000	  0.00	  0.00	
     0.68000	    0.000	  0.00	  0.00	
     0.69000	    0.000	  0.00	  0.00	
     0.70000	    0.000	  0.00	  0.00	
     0.71000	    0.000	  0.00	  0.00	
     0.72000	    0.000	  0.00	  0.00	
     0.73000	    0.000	  0.00	  0.00	
     0.74000	    0.000	  0.00	  0.00	
     0.75000	    0.000	  0.00	  0.00	
     0.76000	    0.000	  0.00	  0.00	
     0.77000	    0.000	  0.00	  0.00	
     0.78000	    0.000	  0.00	  0.00	
     0.79000	    0.000	  0.00	  0.00	
     0.80000	    0.000	  0.00	  0.00	
     0.81000	    0.000	  0.00	  0.00	
     0.82000	    0.000	  0.00	  0.00	
     0.83000	    0.000	  0.00	  0.00	
     0.84000	    0.000	  0.00	  0.00	
     0.85000	    0.000	  0.00	  0.00	
     0.86000	    0.000	  0.00	  0.00	
     0.87000	    0.000	  0.00	  0.00	
     0.88000	    0.000	  0.00	  0.00	
     0.89000	    0.000	  0.00	  0.00	
     0.90000	    0.000	  0.00	  0.00	
     0.91000	    0.000	  0.00	  0.00	
     0.92000	    0.000	  0.00	  0.00	
     0.93000	    0.000	  0.00	  0.00	
     0.94000	    0.000	  0.00	  0.00	
     0.95000	    0.000	  0.00	  0.00	
     0.96000	    0.000	  0.00	  0.00	
     0.97000	    0.000	  0.00	  0.00	
     0.98000	    0.000	  0.00	  0.00	
     0.99000	    0.000	  0.00	  0.00	
     1.00000	    0.000	  0.00	  0.00	
     1.01000	    0.000	  0.00	  0.00	
     1.02000	    0.000	  0.00	  0.00	
     1.03000	    0.000	  0.00	  0.00	
     1.04000	    0.000	  0.00	  0.00	
     1.05000	    0.000	  0.00	  0.00	
     1.06000	    0.000	  0.00	  0.00	
     1.07000	    0.000	  0.00	  0.00	
     1.08000	    0.000	  0.00	  0.00	
     1.09000	    0.000	  0.00	  0.00	
     1.10000	    0.000	  0.00	  0.00	
     1.11000	    0.000	  0.00	  0.00	
     1.12000	    0.000	  0.00	  0.00	
     1.13000	    0.000	  0.00	  0.00	
     1.14000	    0.000	  0.00	  0.00	
     1.15000	    0.000	  0.00	  0.00	
     1.16000	    0.000	  0.00	  0.00	
     1.17000	    0.000	  0.00	  0.00	
     1.18000	    0.000	  0.00	  0.00	
     1.19000	    0.000	  0.00	  0.00	
     1.20000	    0.000	  0.00	  0.00	
     1.21000	    0.000	  0.00	  0.00	
     1.22000	    0.000	  0.00	  0.00	
     1.23000	    0.000	  0.00	  0.00	
     1.24000	    0.000	  0.00	  0.00	
     1.25000	    0.000	  0.00	  0.00	
     1.26000	    0.000	  0.00	  0.00	
     1.27000	    0.000	  0.00	  0.00	
     1.28000	    0.000	  0.00	  0.00	
     1.29000	    0.000	  0.00	  0.00	
     1.30000	    0.000	  0.00	  0.00	
     1.31000	    0.000	  0.00	  0.00	
     1.32000	    0.000	  0.00	  0.00	
     1.33000	    0.000	  0.00	  0.00	
     1.34000	    0.000	  0.00	  0.00	
     1.35000	    0.000	  0.00	  0.00	
     1.36000	    0.000	  0.00	  0.00	
     1.37000	    0.000	  0.00	  0.00	
     1.38000	    0.000	  0.00	  0.00	
     1.39000	    0.000	  0.00	  0.00	
     1.40000	    0.000	  0.00	  0.00	
     1.41000	    0.000	  0.00	  0.00	
     1.42000	    0.000	  0.00	  0.00	
     1.43000	    0.000	  0.00	  0.00	
     1.44000	    0.000	  0.00	  0.00	
     1.45000	    0.000	  0.00	  0.00	
     1.46000	    0.000	  0.00	  0.00	
     1.47000	    0.000	  0.00	  0.00	
     1.48000	    0.000	  0.00	  0.00	
     1.49000	    0.000	  0.00	  0.00	
     1.50000	    0.000	  0.00	  0.00	
     1.51000	    0.000	  0.00	  0.00	
     1.52000	    0.000	  0.00	  0.00	
     1.53000	    0.000	  0.00	  0.00	
     1.54000	    0.000	  0.00	  0.00	
     1.55000	    0.000	  0.00	  0.00	
     1.56000	    0.000	  0.00	  0.00	
     1.57000	    0.000	  0.00	  0.00	
     1.58000	    0.000	  0.00	  0.00	
     1.59000	    0.000	  0.00	  0.00	
     1.60000	    0.000	  0.00	  0.00	
     1.61000	    0.000	  0.00	  0.00	
     1.62000	    0.000	  0.00	  0.00	
     1.63000	    0.000	  0.00	  0.00	
     1.64000	    0.000	  0.00	  0.00	
     1.65000	    0.000	  0.00	  0.00	
     1.66000	    0.000	  0.00	  0.00	
     1.67000	    0.000	  0.00	  0.00	
     1.68000	    0.000	  0.00	  0.00	
     1.69000	    0.000	  0.00	  0.00	
     1.70000	    0.000	  0.00	  0.00	
     1.71000	    0.000	  0.00	  0.00	
     1.72000	    0.000	  0.00	  0.00	
     1.73000	    0.000	  0.00	  0.00	
     1.74000	    0.000	  0.00	  0.00	
     1.75000	    0.000	  0.00	  0.00	
     1.76000	    0.000	  0.00	  0.00	
     1.77000	    0.000	  0.00	  0.00	
     1.78000	    0.000	  0.00	  0.00	
     1.79000	    0.000	  0.00	  0.00	
     1.80000	    0.000	  0.00	  0.00	
     1.81000	    0.000	  0.00	  0.00	
     1.82000	    0.000	  0.00	  0.00	
     1.83000	    0.000	  0.00	  0.00	
     1.84000	    0.000	  0.00	  0.00	
     1.85000	    0.000	  0.00	  0.00	
     1.86000	    0.000	  0.00	  0.00	
     1.87000	    0.000	  0.00	  0.00	
     1.88000	    0.000	  0.00	  0.00	
     1.89000	    0.000	  0.00	  0.00	
     1.90000	    0.000	  0.00	  0.00	
     1.91000	    0.000	  0.00	  0.00	
     1.92000	    0.000	  0.00	  0.00	
     1.93000	    0.000	  0.00	  0.00	
     1.94000	    0.000	  0.00	  0.00	
     1.95000	    0.000	  0.00	  0.00	
     1.96000	    0.000	  0.00	  0.00	
     1.97000	    0.000	  0.00	  0.00	
     1.98000	    0.000	  0.00	  0.00	
     1.99000	    0.000	  0.00	  0.00	
     2.00000	    0.000	  0.00	  0.00	
     2.01000	    0.000	  0.00	  0.00	
     2.02000	    0.000	  0.00	  0.00	
     2.03000	    0.000	  0.00	  0.00	
     2.04000	    0.000	  0.00	  0.00	
     2.05000	    0.000	  0.00	  0.00	
     2.06000	    0.000	  0.00	  0.00	
     2.07000	    0.000	  0.00	  0.00	
     2.08000	    0.000	  0.00	  0.00	
     2.09000	    0.000	  0.00	  0.00	
     2.10000	    0.000	  0.00	  0.00	
     2.11000	    0.000	  0.00	  0.00	
     2.12000	    0.000	  0.00	  0.00	
     2.13000	    0.000	  0.00	  0.00	
     2.14000	    0.000	  0.00	  0.00	
     2.15000	    0.000	  0.00	  0.00	
     2.16000	    0.000	  0.00	  0.00	
     2.17000	    0.000	  0.00	  0.00	
     2.18000	    0.000	  0.00	  0.00	
     2.19000	    0.000	  0.00	  0.00	
     2.20000	    0.000	  0.00	  0.00	
     2.21000	    0.000	  0.00	  0.00	
     2.22000	    0.000	  0.00	  0.00	
     2.23000	    0.000	  0.00	  0.00	
     2.24000	    0.000	  0.00	  0.00	
     2.25000	    0.000	  0.00	  0.00	
     2.26000	    0.000	  0.00	  0.00	
     2.27000	    0.000	  0.00	  0.00	
     2.28000	    0.000	  0.00	  0.00	
     2.29000	    0.000	  0.00	  0.00	
     2.30000	    0.000	  0.00	  0.00	
     2.31000	    0.000	  0.00	  0.00	
     2.32000	    0.000	  0.00	  0.00	
     2.33000	    0.000	  0.00	  0.00	
     2.34000	    0.000	  0.00	  0.00	
     2.35000	    0.000	  0.00	  0.00	
     2.36000	    0.000	  0.00	  0.00	
     2.37000	    0.000	  0.00	  0.00	
     2.38000	    0.000	  0.00	  0.00	
     2.39000	    0.000	  0.00	  0.00	
     2.40000	    0.000	  0.00	  0.00	
     2.41000	    0.000	  0.00	  0.00	
     2.42000	    0.000	  0.00	  0.00	
     2.43000	    0.000	  0.00	  0.00	
     2.44000	    0.000	  0.00	  0.00	
     2.45000	    0.000	  0.00	  0.00	
     2.46000	    0.000	  0.00	  0.00	
     2.47000	    0.000	  0.00	  0.00	
     2.48000	    0.000	  0.00	  0.00	
     2.49000	    0.000	  0.00	  0.00	
     2.50000	    0.000	  0.00	  0.00	
     2.51000	    0.000	  0.00	  0.00	
     2.52000	    0.000	  0.00	  0.00	
     2.53000	    0.000	  0.00	  0.00	
     2.54000	    0.000	  0.00	  0.00	
     2.55000	    0.000	  0.00	  0.00	
     2.56000	    0.000	  0.00	  0.00	
     2.57000	    0.000	  0.00	  0.00	
     2.58000	    0.000	  0.00	  0.00	
     2.59000	    0.000	  0.00	  0.00	
     2.60000	    0.000	  0.00	  0.00	
     2.61000	    0.000	  0.00	  0.00	
     2.62000	    0.000	  0.00	  0.00	
     2.63000	    0.000	  0.00	  0.00	
     2.64000	    0.000	  0.00	  0.00	
     2.65000	    0.000	  0.00	  0.00	
     2.66000	    0.000	  0.00	  0.00	
     2.67000	    0.000	  0.00	  0.00	
     2.68000	    0.000	  0.00	  0.00	
     2.69000	    0.000	  0.00	  0.00	
     2.70000	    0.000	  0.00	  0.00	
     2.71000	    0.000	  0.00	  0.00	
     2.72000	    0.000	  0.00	  0.00	
     2.73000	    0.000	  0.00	  0.00	
     2.74000	    0.000	  0.00	  0.00	
     2.75000	    0.000	  0.00	  0.00	
     2.76000	    0.000	  0.00	  0.00	
     2.77000	    0.000	  0.00	  0.00	
     2.78000	    0.000	  0.00	  0.00	
     2.79000	    0.000	  0.00	  0.00	
     2.80000	    0.000	  0.00	  0.00	
     2.81000	    0.000	  0.00	  0.00	
     2.82000	    0.000	  0.00	  0.00	
     2.83000	    0.000	  0.00	  0.00	
     2.84000	    0.000	  0.00	  0.00	
     2.85000	    0.000	  0.00	  0.00	
     2.86000	    0.000	  0.00	  0.00	
     2.87000	    0.000	  0.00	  0.00	
     2.88000	    0.000	  0.00	  0.00	
     2.89000	    0.000	  0.00	  0.00	
     2.90000	    0.000	  0.00	  0.00	
     2.91000	    0.000	  0.00	  0.00	
     2.92000	    0.000	  0.00	  0.00	
     2.93000	    0.000	  0.00	  0.00	
     2.94000	    0.000	  0.00	  0.00	
     2.95000	    0.000	  0.00	  0.00	
     2.96000	    0.000	  0.00	  0.00	
     2.97000	    0.000	  0.00	  0.00	
     2.98000	    0.000	  0.00	  0.00	
     2.99000	    0.000	  0.00	  0.00	
     3.00000	    0.000	  0.00	  0.00	
     3.01000	    0.000	  0.00	  0.00	
     3.02000	    0.000	  0.00	  0.00	
     3.03000	    0.000	  0.00	  0.00	
     3.04000	    0.000	  0.00	  0.00	
     3.05000	    0.000	  0.00	  0.00	
     3.06000	    0.000	  0.00	  0.00	
     3.07000	    0.000	  0.00	  0.00	
     3.08000	    0.000	  0.00	  0.00	
     3.09000	    0.000	  0.00	  0.00	
     3.10000	    0.000	  0.00	  0.00	
     3.11000	    0.000	  0.00	  0.00	
     3.12000	    0.000	  0.00	  0.00	
     3.13000	    0.000	  0.00	  0.00	
     3.14000	    0.000	  0.00	  0.00	
     3.15000	    0.000	  0.00	  0.00	
     3.16000	    0.000	  0.00	  0.00	
     3.17000	    0.000	  0.00	  0.00	
     3.18000	    0.000	  0.00	  0.00	
     3.19000	    0.000	  0.00	  0.00	
     3.20000	    0.000	  0.00	  0.00	
     3.21000	    0.000	  0.00	  0.00	
     3.22000	    0.000	  0.00	  0.00	
     3.23000	    0.000	  0.00	  0.00	
     3.24000	    0.000	  0.00	  0.00	
     3.25000	    0.000	  0.00	  0.00	
     3.26000	    0.000	  0.00	  0.00	
     3.27000	    0.000	  0.00	  0.00	
     3.28000	    0.000	  0.00	  0.00	
     3.29000	    0.000	  0.00	  0.00	
     3.30000	    0.000	  0.00	  0.00	
     3.31000	    0.000	  0.00	  0.00	
     3.32000	    0.000	  0.00	  0.00	
     3.33000	    0.000	  0.00	  0.00	
     3.34000	    0.000	  0.00	  0.00	
     3.35000	    0.000	  0.00	  0.00	
     3.36000	    0.000	  0.00	  0.00	
     3.37000	    0.000	  0.00	  0.00	
     3.38000	    0.000	  0.00	  0.00	
     3.39000	    0.000	  0.00	  0.00	
     3.40000	    0.000	  0.00	  0.00	
     3.41000	    0.000	  0.00	  0.00	
     3.42000	    0.000	  0.00	  0.00	
     3.43000	    0.000	  0.00	  0.00	
     3.44000	    0.000	  0.00	  0.00	
     3.45000	    0.000	  0.00	  0.00	
     3.46000	    0.000	  0.00	  0.00	
     3.47000	    0.000	  0.00	  0.00	
     3.48000	    0.000	  0.00	  0.00	
     3.49000	    0.000	  0.00	  0.00	
     3.50000	    0.000	  0.00	  0.00	
     3.51000	    0.000	  0.00	  0.00	
     3.52000	    0.000	  0.00	  0.00	
     3.53000	    0.000	  0.00	  0.00	
     3.54000	    0.000	  0.00	  0.00	
     3.55000	    0.000	  0.00	  0.00	
     3.56000	    0.000	  0.00	  0.00	
     3.57000	    0.000	  0.00	  0.00	
     3.58000	    0.000	  0.00	  0.00	
     3.59000	    0.000	  0.00	  0.00	
     3.60000	    0.000	  0.00	  0.00	
     3.61000	    0.000	  0.00	  0.00	
     3.62000	    0.000	  0.00	  0.00	
     3.63000	    0.000	  0.00	  0.00	
     3.64000	    0.000	  0.00	  0.00	
     3.65000	    0.000	  0.00	  0.00	
     3.66000	    0.000	  0.00	  0.00	
     3.67000	    0.000	  0.00	  0.00	
     3.68000	    0.000	  0.00	  0.00	
     3.69000	    0.000	  0.00	  0.00	
     3.70000	    0.000	  0.00	  0.00	
     3.71000	    0.000	  0.00	  0.00	
     3.72000	    0.000	  0.00	  0.00	
     3.73000	    0.000	  0.00	  0.00	
     3.74000	    0.000	  0.00	  0.00	
     3.75000	    0.000	  0.00	  0.00	
     3.76000	    0.000	  0.00	  0.00	
     3.77000	    0.000	  0.00	  0.00	
     3.78000	    0.000	  0.00	  0.00	
     3.79000	    0.000	  0.00	  0.00	
     3.80000	    0.000	  0.00	  0.00	
     3.81000	    0.000	  0.00	  0.00	
     3.82000	    0.000	  0.00	  0.00	
     3.83000	    0.000	  0.00	  0.00	
     3.84000	    0.000	  0.00	  0.00	
     3.85000	    0.000	  0.00	  0.00	
     3.86000	    0.000	  0.00	  0.00	
     3.87000	    0.000	  0.00	  0.00	
     3.88000	    0.000	  0.00	  0.00	
     3.89000	    0.000	  0.00	  0.00	
     3.90000	    0.000	  0.00	  0.00	
     3.91000	    0.000	  0.00	  0.00	
     3.92000	    0.000	  0.00	  0.00	
     3.93000	    0.000	  0.00	  0.00	
     3.94000	    0.000	  0.00	  0.00	
     3.95000	    2.000	 35.00	115.00	
     3.96000	    2.000	 35.00	115.00	
     3.97000	    4.000	 35.00	120.00	
     3.98000	    2.000	 35.00	115.00	
     3.99000	    4.000	 35.00	120.00	
     4.00000	    4.000	 35.00	120.00	
     4.01000	    8.000	 47.50	 75.00	
     4.02000	    8.000	 47.50	 75.00	
     4.03000	    8.000	 47.50	 75.00	
     4.04000	   10.000	 49.00	 67.00	
     4.05000	   10.000	 49.00	 67.00	
     4.06000	   10.000	 49.00	 67.00	
     4.07000	   10.000	 49.00	 67.00	
     4.08000	   12.000	 53.33	 78.33	
     4.09000	   12.000	 53.33	 78.33	
     4.10000	   14.000	 55.00	 85.00	
     4.11000	   18.000	 56.11	 85.00	
     4.12000	   22.500	 58.56	 93.67	
     4.13000	   23.000	 59.35	 83.48	
     4.14000	   25.000	 59.80	 87.60	
     4.15000	   29.500	 60.08	 95.51	
     4.16000	   29.500	 60.08	 95.51	
     4.17000	   29.500	 59.41	 94.15	
     4.18000	   40.000	 55.50	 94.00	
     4.19000	   38.500	 56.17	 96.30	
     4.20000	   42.500	 55.12	 95.24	
     4.21000	   43.500	 55.23	 95.00	
     4.22000	   41.000	 55.73	 92.44	
     4.23000	   45.500	 56.54	 97.20	
     4.24000	   49.500	 56.41	 96.62	
     4.25000	   50.500	 56.29	 97.08	
     4.26000	   50.500	 56.29	 97.08	
     4.27000	   51.000	 56.47	 96.47	
     4.28000	   54.500	 57.02	 93.90	
     4.29000	   52.500	 56.05	 96.43	
     4.30000	   55.500	 56.98	 93.74	
     4.31000	   56.000	 57.05	 93.21	
     4.32000	   60.500	 57.23	 88.47	
     4.33000	   56.000	 56.96	 94.20	
     4.34000	   59.000	 56.61	 95.08	
     4.35000	   64.000	 55.63	 92.58	
     4.36000	   63.500	 57.52	 90.51	
     4.37000	   66.000	 57.73	 87.80	
     4.38000	   67.000	 57.84	 88.66	
     4.39000	   69.500	 56.94	 88.45	
     4.40000	   72.500	 57.28	 91.00	
     4.41000	   72.500	 57.28	 91.00	
     4.42000	   72.500	 57.28	 91.00	
     4.43000	   71.000	 58.10	 89.65	
     4.44000	   73.500	 57.18	 90.92	
     4.45000	   75.000	 57.07	 91.07	
     4.46000	   75.000	 57.07	 91.07	
     4.47000	   77.000	 56.75	 91.69	
     4.48000	   80.500	 57.98	 87.36	
     4.49000	   82.500	 57.48	 88.52	
     4.50000	   82.000	 57.93	 87.62	
     4.51000	   82.500	 57.79	 87.85	
     4.52000	   84.500	 57.54	 89.02	
     4.53000	   85.000	 57.53	 89.35	
     4.54000	   86.500	 57.54	 88.93	
     4.55000	   90.500	 57.76	 89.25	
     4.56000	   93.000	 58.33	 90.91	
     4.57000	   91.500	 58.55	 89.32	
     4.58000	   92.500	 57.76	 89.76	
     4.59000	   95.500	 58.56	 91.65	
     4.60000	   98.500	 58.55	 92.51	
     4.61000	   96.500	 58.63	 92.05	
     4.62000	   98.000	 58.52	 92.35	
     4.63000	   98.000	 58.52	 92.35	
     4.64000	   99.000	 58.38	 90.35	
     4.65000	  101.000	 58.66	 92.28	
     4.66000	  101.500	 58.30	 90.42	
     4.67000	  107.500	 58.63	 91.42	
     4.68000	  105.000	 58.48	 93.00	
     4.69000	  107.500	 58.40	 91.84	
     4.70000	  106.000	 58.82	 90.71	
     4.71000	  110.000	 57.91	 90.95	
     4.72000	  111.500	 58.05	 91.59	
     4.73000	  113.500	 58.26	 90.59	
     4.74000	  112.500	 58.02	 91.49	
     4.75000	  115.500	 58.42	 92.06	
     4.76000	  115.500	 57.86	 91.10	
     4.77000	  117.000	 58.42	 91.79	
     4.78000	  116.500	 58.05	 91.18	
     4.79000	  121.000	 58.68	 91.98	
     4.80000	  121.000	 58.43	 91.94	
     4.81000	  123.000	 58.90	 92.48	
     4.82000	  120.500	 58.40	 92.72	
     4.83000	  124.500	 58.82	 92.23	
     4.84000	  126.000	 58.77	 92.90	
     4.85000	  128.500	 58.89	 93.09	
     4.86000	  129.500	 58.86	 93.46	
     4.87000	  130.500	 58.83	 93.31	
     4.88000	  129.500	 58.94	 93.42	
     4.89000	  130.000	 58.88	 92.77	
     4.90000	  131.000	 58.82	 93.02	
     4.91000	  131.000	 58.82	 92.71	
     4.92000	  132.500	 58.92	 93.23	
     4.93000	  132.500	 58.89	 93.26	
     4.94000	  133.000	 58.87	 93.16	
     4.95000	  135.000	 58.89	 93.70	
     4.96000	  134.000	 58.92	 93.47	
     4.97000	  139.000	 59.10	 92.05	
     4.98000	  136.500	 58.88	 93.90	
     4.99000	  142.500	 59.04	 90.68	
     5.00000	  142.000	 59.19	 91.97	
     5.01000	  141.500	 59.17	 91.43	
     5.02000	  142.500	 59.18	 92.09	
     5.03000	  146.000	 58.66	 89.35	
     5.04000	  142.500	 59.18	 91.67	
     5.05000	  145.500	 58.99	 90.50	
     5.06000	  144.500	 59.12	 91.89	
     5.07000	  145.500	 58.92	 90.12	
     5.08000	  144.500	 59.01	 90.85	
     5.09000	  147.500	 58.97	 89.95	
     5.10000	  144.500	 59.26	 91.71	
     5.11000	  150.500	 58.55	 88.99	
     5.12000	  148.000	 59.09	 90.24	
     5.13000	  151.000	 58.84	 90.07	
     5.14000	  151.500	 58.66	 89.75	
     5.15000	  153.000	 58.86	 90.33	
     5.16000	  154.000	 58.80	 90.26	
     5.17000	  151.000	 59.04	 90.99	
     5.18000	  154.000	 58.90	 90.32	
     5.19000	  154.000	 58.93	 90.62	
     5.20000	  154.000	 58.90	 90.68	
     5.21000	  155.000	 58.74	 90.55	
     5.22000	  154.500	 58.92	 90.15	
     5.23000	  155.000	 58.84	 90.52	
     5.24000	  155.000	 58.74	 90.55	
     5.25000	  155.500	 58.73	 90.63	
     5.26000	  154.000	 58.80	 90.62	
     5.27000	  155.000	 58.84	 90.52	
     5.28000	  155.000	 58.74	 90.55	
     5.29000	  156.000	 58.78	 90.74	
     5.30000	  158.000	 58.58	 89.78	
     5.31000	  158.500	 58.50	 89.57	
     5.32000	  159.000	 58.49	 89.84	
     5.33000	  160.500	 58.40	 89.83	
     5.34000	  161.000	 58.42	 89.04	
     5.35000	  162.000	 58.33	 88.52	
     5.36000	  162.500	 58.32	 89.12	
     5.37000	  159.500	 58.45	 89.80	
     5.38000	  160.500	 58.36	 90.05	
     5.39000	  160.000	 58.38	 89.72	
     5.40000	  161.500	 58.41	 90.11	
     5.41000	  161.000	 58.26	 88.63	
     5.42000	  161.000	 58.35	 89.94	
     5.43000	  162.500	 58.38	 88.75	
     5.44000	  162.500	 58.32	 88.63	
     5.45000	  160.000	 58.31	 89.94	
     5.46000	  159.500	 58.48	 89.55	
     5.47000	  160.000	 58.31	 89.94	
     5.48000	  161.500	 58.31	 89.09	
     5.49000	  159.000	 58.27	 89.94	
     5.50000	  162.000	 58.15	 88.83	
     5.51000	  159.000	 58.24	 89.56	
     5.52000	  158.500	 58.31	 89.45	
     5.53000	  157.000	 58.28	 89.27	
     5.54000	  158.000	 58.23	 89.27	
     5.55000	  158.500	 58.06	 89.26	
     5.56000	  159.000	 58.08	 89.43	
     5.57000	  159.000	 58.18	 89.50	
     5.58000	  160.500	 58.18	 88.27	
     5.59000	  158.000	 58.23	 89.18	
     5.60000	  158.500	 58.12	 89.26	
     5.61000	  159.500	 58.20	 89.33	
     5.62000	  159.500	 58.13	 89.23	
     5.63000	  162.000	 58.02	 87.75	
     5.64000	  162.000	 58.18	 88.09	
     5.65000	  161.500	 58.10	 88.19	
     5.66000	  161.000	 58.01	 88.35	
     5.67000	  162.000	 58.06	 88.36	
     5.68000	  162.000	 58.15	 87.81	
     5.69000	  161.000	 58.04	 89.10	
     5.70000	  162.000	 58.09	 87.81	
     5.71000	  161.500	 58.10	 88.28	
     5.72000	  161.500	 58.16	 87.94	
     5.73000	  160.000	 58.13	 88.78	
     5.74000	  163.500	 58.15	 88.18	
     5.75000	  163.500	 58.18	 88.24	
     5.76000	  161.500	 58.34	 89.27	
     5.77000	  164.000	 58.17	 87.96	
     5.78000	  163.000	 58.22	 88.07	
     5.79000	  164.000	 58.05	 87.96	
     5.80000	  165.000	 58.06	 88.24	
     5.81000	  164.500	 58.07	 88.37	
     5.82000	  165.000	 58.15	 88.70	
     5.83000	  163.000	 58.22	 88.07	
     5.84000	  164.500	 58.19	 87.83	
     5.85000	  165.000	 58.18	 88.33	
     5.86000	  165.000	 58.36	 88.06	
     5.87000	  165.000	 58.12	 87.91	
     5.88000	  167.000	 58.23	 88.23	
     5.89000	  167.000	 58.17	 87.90	
     5.90000	  167.000	 58.23	 88.26	
     5.91000	  165.500	 58.32	 88.17	
     5.92000	  167.500	 58.34	 88.82	
     5.93000	  167.000	 58.35	 88.41	
     5.94000	  168.500	 58.29	 88.41	
     5.95000	  169.500	 58.48	 89.16	
     5.96000	  170.000	 58.35	 88.85	
     5.97000	  169.000	 58.49	 89.29	
     5.98000	  170.500	 58.37	 89.05	
     5.99000	  171.000	 58.30	 89.06	
     6.00000	  172.000	 58.37	 89.07	
     6.01000	  172.500	 58.30	 88.65	
     6.02000	  172.500	 58.42	 89.29	
     6.03000	  171.500	 58.44	 88.97	
     6.04000	  172.500	 58.42	 89.32	
     6.05000	  171.500	 58.44	 88.97	
     6.06000	  172.500	 58.51	 89.35	
     6.07000	  172.000	 58.58	 89.83	
     6.08000	  171.500	 58.47	 89.05	
     6.09000	  174.000	 58.51	 89.43	
     6.10000	  172.500	 58.62	 90.04	
     6.11000	  173.500	 58.52	 89.67	
     6.12000	  172.000	 58.66	 89.83	
     6.13000	  171.500	 58.62	 90.04	
     6.14000	  173.500	 58.60	 90.33	
     6.15000	  172.500	 58.57	 89.90	
     6.16000	  172.000	 58.69	 90.55	
     6.17000	  172.000	 58.72	 90.55	
     6.18000	  172.000	 58.63	 89.80	
     6.19000	  173.000	 58.67	 90.49	
     6.20000	  172.000	 58.78	 90.55	
     6.21000	  171.000	 58.80	 90.61	
     6.22000	  172.500	 58.65	 90.65	
     6.23000	  171.500	 58.64	 90.63	
     6.24000	  171.500	 58.76	 90.71	
     6.25000	  172.000	 58.69	 90.81	
     6.26000	  171.500	 58.67	 91.06	
     6.27000	  171.500	 58.73	 91.12	
     6.28000	  171.000	 58.63	 90.82	
     6.29000	  171.000	 58.60	 91.08	
     6.30000	  170.500	 58.55	 90.89	
     6.31000	  169.500	 58.57	 90.96	
     6.32000	  170.500	 58.58	 90.92	
     6.33000	  170.000	 58.50	 91.06	
     6.34000	  170.000	 58.50	 91.06	
     6.35000	  170.000	 58.50	 91.06	
     6.36000	  170.000	 58.50	 91.06	
     6.37000	  169.500	 58.57	 90.96	
     6.38000	  170.000	 58.50	 91.06	
     6.39000	  169.500	 58.42	 90.93	
     6.40000	  169.500	 58.57	 90.96	
     6.41000	  168.500	 58.44	 91.26	
     6.42000	  168.500	 58.44	 91.26	
     6.43000	  170.500	 58.52	 90.84	
     6.44000	  169.500	 58.42	 90.90	
     6.45000	  167.500	 58.40	 91.39	
     6.46000	  169.500	 58.42	 90.93	
     6.47000	  169.000	 58.46	 91.09	
     6.48000	  169.000	 58.22	 90.98	
     6.49000	  169.000	 58.22	 91.01	
     6.50000	  169.000	 58.22	 91.04	
     6.51000	  169.000	 58.20	 90.71	
     6.52000	  169.500	 58.19	 90.81	
     6.53000	  170.500	 58.23	 91.10	
     6.54000	  170.000	 58.15	 90.94	
     6.55000	  171.000	 58.16	 90.88	
     6.56000	  172.000	 58.20	 90.81	
     6.57000	  172.500	 58.07	 91.14	
     6.58000	  173.500	 57.82	 90.73	
     6.59000	  173.000	 57.98	 90.72	
     6.60000	  175.500	 57.96	 90.33	
     6.61000	  174.000	 58.02	 90.37	
     6.62000	  175.500	 58.11	 90.47	
     6.63000	  177.000	 57.94	 90.25	
     6.64000	  179.000	 57.68	 91.15	
     6.65000	  180.000	 57.92	 90.64	
     6.66000	  180.500	 57.94	 90.54	
     6.67000	  183.000	 57.84	 90.16	
     6.68000	  186.000	 57.74	 90.30	
     6.69000	  187.000	 57.78	 90.96	
     6.70000	  189.000	 57.91	 90.29	
     6.71000	  188.000	 57.66	 90.48	
     6.72000	  189.500	 57.80	 90.67	
     6.73000	  191.500	 57.58	 90.25	
     6.74000	  193.000	 57.67	 90.39	
     6.75000	  193.500	 57.58	 90.19	
     6.76000	  194.500	 57.62	 90.42	
     6.77000	  198.000	 57.53	 89.55	
     6.78000	  198.000	 57.55	 89.34	
     6.79000	  202.500	 57.64	 89.22	
     6.80000	  205.000	 57.88	 88.71	
     6.81000	  205.000	 57.66	 89.59	
     6.82000	  209.500	 57.98	 88.87	
     6.83000	  208.500	 57.76	 89.24	
     6.84000	  212.000	 57.90	 88.40	
     6.85000	  212.500	 57.71	 88.62	
     6.86000	  213.500	 57.95	 88.30	
     6.87000	  215.500	 57.90	 88.53	
     6.88000	  216.000	 58.01	 88.63	
     6.89000	  221.000	 58.28	 89.43	
     6.90000	  223.000	 58.23	 89.39	
     6.91000	  225.500	 58.28	 89.06	
     6.92000	  226.500	 58.18	 89.44	
     6.93000	  228.500	 58.30	 89.46	
     6.94000	  227.500	 58.30	 89.20	
     6.95000	  229.000	 58.25	 89.45	
     6.96000	  232.000	 58.21	 89.63	
     6.97000	  232.000	 58.30	 89.98	
     6.98000	  233.000	 58.33	 89.85	
     6.99000	  234.000	 58.27	 89.38	
     7.00000	  235.000	 58.19	 89.60	
     7.01000	  235.500	 58.18	 89.46	
     7.02000	  237.000	 58.29	 89.41	
     7.03000	  239.000	 58.26	 88.93	
     7.04000	  238.000	 58.17	 89.05	
     7.05000	  241.000	 58.13	 89.23	
     7.06000	  241.000	 58.20	 89.71	
     7.07000	  241.500	 58.37	 88.98	
     7.08000	  242.000	 58.33	 89.59	
     7.09000	  242.500	 58.24	 89.43	
     7.10000	  242.000	 58.37	 89.09	
     7.11000	  241.000	 58.26	 89.32	
     7.12000	  242.000	 58.31	 89.40	
     7.13000	  245.500	 58.12	 89.42	
     7.14000	  244.000	 58.20	 89.41	
     7.15000	  243.500	 58.35	 89.19	
     7.16000	  247.000	 58.18	 88.46	
     7.17000	  244.500	 58.23	 88.95	
     7.18000	  248.000	 58.17	 88.47	
     7.19000	  247.000	 58.24	 88.38	
     7.20000	  244.000	 58.30	 88.65	
     7.21000	  245.000	 58.31	 89.10	
     7.22000	  248.000	 58.31	 88.15	
     7.23000	  246.500	 58.23	 88.43	
     7.24000	  246.500	 58.16	 88.79	
     7.25000	  248.500	 58.30	 87.54	
     7.26000	  247.000	 58.22	 88.54	
     7.27000	  246.000	 58.21	 88.80	
     7.28000	  249.500	 58.45	 88.03	
     7.29000	  249.500	 58.29	 88.43	
     7.30000	  249.500	 58.33	 88.65	
     7.31000	  249.500	 58.43	 88.03	
     7.32000	  251.500	 58.26	 87.90	
     7.33000	  248.000	 58.19	 88.69	
     7.34000	  248.000	 58.21	 88.67	
     7.35000	  249.000	 58.15	 88.45	
     7.36000	  248.000	 58.21	 88.73	
     7.37000	  251.000	 58.17	 88.69	
     7.38000	  248.000	 58.33	 88.57	
     7.39000	  248.000	 58.27	 88.97	
     7.40000	  249.000	 58.31	 88.57	
     7.41000	  249.000	 58.31	 88.59	
     7.42000	  245.500	 58.36	 88.77	
     7.43000	  249.500	 58.17	 89.03	
     7.44000	  248.500	 58.24	 88.62	
     7.45000	  247.000	 58.32	 88.62	
     7.46000	  249.500	 58.35	 88.07	
     7.47000	  247.500	 58.27	 88.49	
     7.48000	  246.000	 58.35	 88.43	
     7.49000	  245.500	 58.30	 88.32	
     7.50000	  247.000	 58.18	 88.79	
     7.51000	  249.500	 58.05	 88.97	
     7.52000	  248.500	 58.10	 88.76	
     7.53000	  247.000	 58.34	 87.73	
     7.54000	  244.500	 58.23	 88.33	
     7.55000	  253.000	 57.89	 88.40	
     7.56000	  249.500	 58.11	 88.17	
     7.57000	  246.500	 58.12	 88.67	
     7.58000	  247.500	 58.09	 89.04	
     7.59000	  248.500	 57.78	 89.00	
     7.60000	  247.000	 58.04	 88.95	
     7.61000	  246.000	 58.05	 88.80	
     7.62000	  249.500	 57.67	 89.19	
     7.63000	  248.500	 57.78	 89.25	
     7.64000	  249.000	 58.13	 88.05	
     7.65000	  248.500	 57.92	 88.56	
     7.66000	  248.000	 57.80	 89.17	
     7.67000	  247.500	 58.03	 88.64	
     7.68000	  246.000	 58.17	 88.37	
     7.69000	  249.000	 58.19	 88.07	
     7.70000	  246.500	 58.02	 88.67	
     7.71000	  250.500	 57.67	 89.13	
     7.72000	  250.000	 57.72	 88.84	
     7.73000	  245.500	 58.03	 88.05	
     7.74000	  250.000	 57.78	 89.28	
     7.75000	  248.500	 57.96	 88.40	
     7.76000	  247.000	 57.81	 88.56	
     7.77000	  247.500	 57.85	 88.68	
     7.78000	  245.000	 58.18	 87.98	
     7.79000	  246.500	 58.18	 88.87	
     7.80000	  248.500	 57.84	 88.34	
     7.81000	  249.000	 57.83	 88.65	
     7.82000	  245.500	 57.95	 88.50	
     7.83000	  246.500	 58.08	 88.23	
     7.84000	  249.500	 57.79	 88.53	
     7.85000	  251.000	 57.89	 88.21	
     7.86000	  251.500	 57.78	 88.50	
     7.87000	  250.000	 57.92	 89.00	
     7.88000	  251.000	 57.73	 89.40	
     7.89000	  251.000	 57.75	 88.98	
     7.90000	  251.000	 57.75	 89.04	
     7.91000	  252.000	 57.96	 88.10	
     7.92000	  254.000	 57.76	 88.27	
     7.93000	  251.000	 57.81	 88.84	
     7.94000	  254.000	 57.74	 88.25	
     7.95000	  252.000	 57.84	 88.17	
     7.96000	  248.000	 57.90	 88.53	
     7.97000	  248.000	 57.86	 88.49	
     7.98000	  252.000	 58.08	 87.94	
     7.99000	  251.000	 57.71	 88.98	
     8.00000	  253.500	 57.76	 87.94	
     8.01000	  251.500	 58.10	 88.02	
     8.02000	  252.000	 57.62	 88.85	
     8.03000	  251.500	 57.86	 87.84	
     8.04000	  254.500	 57.75	 88.14	
     8.05000	  253.000	 57.94	 88.74	
     8.06000	  256.000	 57.85	 88.24	
     8.07000	  256.000	 57.85	 88.73	
     8.08000	  252.500	 58.21	 88.25	
     8.09000	  255.000	 57.96	 88.55	
     8.10000	  256.000	 57.85	 88.71	
     8.11000	  258.000	 57.81	 88.62	
     8.12000	  256.000	 57.79	 88.87	
     8.13000	  257.500	 57.78	 88.57	
     8.14000	  256.000	 57.93	 88.54	
     8.15000	  253.500	 58.14	 89.10	
     8.16000	  255.000	 57.73	 89.16	
     8.17000	  257.500	 57.80	 89.62	
     8.18000	  257.000	 57.92	 89.79	
     8.19000	  258.500	 58.06	 89.29	
     8.20000	  257.000	 58.13	 88.70	
     8.21000	  259.000	 57.99	 89.00	
     8.22000	  258.500	 57.92	 89.87	
     8.23000	  257.000	 57.94	 89.63	
     8.24000	  259.000	 57.95	 89.15	
     8.25000	  260.000	 58.06	 89.15	
     8.26000	  258.000	 57.91	 89.79	
     8.27000	  260.500	 57.92	 89.20	
     8.28000	  260.000	 58.06	 89.15	
     8.29000	  260.500	 58.07	 89.24	
     8.30000	  260.500	 58.17	 89.45	
     8.31000	  260.000	 57.90	 89.48	
     8.32000	  261.000	 58.03	 89.54	
     8.33000	  261.000	 58.07	 89.37	
     8.34000	  260.000	 58.08	 89.33	
     8.35000	  260.500	 58.01	 89.47	
     8.36000	  261.500	 57.96	 89.38	
     8.37000	  261.500	 57.98	 89.57	
     8.38000	  260.000	 58.15	 89.58	
     8.39000	  261.500	 58.02	 89.57	
     8.40000	  259.500	 58.03	 89.43	
     8.41000	  260.000	 58.12	 89.71	
     8.42000	  258.500	 58.04	 89.62	
     8.43000	  259.000	 57.99	 89.46	
     8.44000	  259.000	 57.90	 89.65	
     8.45000	  255.500	 58.01	 89.81	
     8.46000	  255.500	 57.90	 89.81	
     8.47000	  254.000	 58.25	 90.20	
     8.48000	  259.000	 57.82	 89.61	
     8.49000	  257.000	 57.96	 89.67	
     8.50000	  255.500	 58.13	 89.31	
     8.51000	  257.500	 57.85	 89.74	
     8.52000	  256.500	 58.22	 89.39	
     8.53000	  256.000	 58.28	 89.71	
     8.54000	  256.500	 57.87	 90.17	
     8.55000	  257.500	 57.91	 90.09	
     8.56000	  254.000	 57.93	 89.92	
     8.57000	  252.000	 58.21	 88.91	
     8.58000	  255.000	 57.82	 89.80	
     8.59000	  253.000	 58.12	 89.45	
     8.60000	  253.500	 57.76	 89.75	
     8.61000	  253.500	 57.96	 89.12	
     8.62000	  250.000	 58.10	 88.86	
     8.63000	  252.000	 57.88	 89.29	
     8.64000	  248.500	 58.04	 88.76	
     8.65000	  250.000	 58.04	 89.06	
     8.66000	  248.500	 58.08	 88.80	
     8.67000	  248.500	 58.06	 88.94	
     8.68000	  248.000	 58.06	 88.37	
     8.69000	  250.000	 57.80	 89.40	
     8.70000	  247.500	 58.07	 88.98	
     8.71000	  248.500	 58.06	 89.08	
     8.72000	  245.500	 57.97	 88.91	
     8.73000	  246.000	 57.99	 88.72	
     8.74000	  245.000	 58.10	 88.88	
     8.75000	  248.000	 57.94	 88.63	
     8.76000	  246.500	 58.06	 89.04	
     8.77000	  245.000	 58.02	 89.18	
     8.78000	  244.500	 58.19	 89.44	
     8.79000	  246.500	 58.08	 89.28	
     8.80000	  248.000	 57.98	 89.05	
     8.81000	  245.500	 58.16	 89.54	
     8.82000	  245.500	 58.08	 89.54	
     8.83000	  245.500	 58.08	 89.07	
     8.84000	  246.500	 58.02	 89.26	
     8.85000	  245.500	 58.08	 89.52	
     8.86000	  245.500	 58.12	 89.30	
     8.87000	  248.000	 57.98	 88.83	
     8.88000	  249.500	 57.93	 89.05	
     8.89000	  249.500	 57.79	 89.21	
     8.90000	  246.000	 58.07	 89.37	
     8.91000	  245.500	 58.10	 89.44	
     8.92000	  248.000	 57.92	 88.99	
     8.93000	  247.000	 58.16	 89.55	
     8.94000	  247.500	 58.05	 89.79	
     8.95000	  248.000	 58.06	 89.52	
     8.96000	  248.500	 58.08	 89.59	
     8.97000	  253.500	 57.92	 89.89	
     8.98000	  252.500	 57.79	 90.09	
     8.99000	  254.000	 57.81	 90.14	
     9.00000	  254.500	 57.83	 89.99	
     9.01000	  259.000	 57.76	 89.65	
     9.02000	  260.000	 57.73	 89.35	
     9.03000	  258.000	 57.81	 89.90	
     9.04000	  258.000	 57.77	 89.90	
     9.05000	  261.500	 57.81	 89.40	
     9.06000	  262.000	 57.75	 89.47	
     9.07000	  260.500	 57.86	 89.89	
     9.08000	  262.000	 57.77	 89.27	
     9.09000	  261.000	 57.89	 89.79	
     9.10000	  261.500	 57.85	 90.07	
     9.11000	  260.000	 57.90	 89.83	
     9.12000	  259.500	 57.77	 90.11	
     9.13000	  258.500	 57.80	 90.16	
     9.14000	  259.500	 57.81	 89.66	
     9.15000	  258.000	 57.75	 90.21	
     9.16000	  258.000	 57.75	 90.19	
     9.17000	  255.000	 57.43	 89.31	
     9.18000	  254.500	 57.36	 89.36	
     9.19000	  252.000	 57.28	 89.52	
     9.20000	  252.000	 57.10	 89.94	
     9.21000	  251.000	 57.09	 89.74	
     9.22000	  247.000	 57.17	 89.07	
     9.23000	  249.500	 56.86	 89.21	
     9.24000	  247.500	 56.86	 89.83	
     9.25000	  246.000	 56.87	 89.49	
     9.26000	  241.000	 57.12	 89.46	
     9.27000	  239.000	 57.07	 89.21	
     9.28000	  238.500	 56.66	 89.91	
     9.29000	  236.000	 56.80	 90.93	
     9.30000	  239.500	 56.50	 91.43	
     9.31000	  240.500	 56.41	 92.48	
     9.32000	  245.000	 56.31	 92.55	
     9.33000	  255.500	 56.33	 92.79	
     9.34000	  269.000	 56.56	 93.14	
     9.35000	  295.000	 56.71	 92.92	
     9.36000	  335.000	 57.09	 93.67	
     9.37000	  388.000	 57.32	 92.58	
     9.38000	  449.000	 57.45	 91.65	
     9.39000	  525.500	 57.41	 89.09	
     9.40000	  600.000	 57.68	 87.97	
     9.41000	  664.500	 58.30	 86.53	
     9.42000	  722.500	 58.20	 85.71	
     9.43000	  757.000	 58.13	 85.05	
     9.44000	  781.000	 58.05	 84.42	
     9.45000	  779.000	 57.72	 85.01	
     9.46000	  770.000	 57.52	 84.98	
     9.47000	  763.000	 57.33	 85.03	
     9.48000	  747.000	 57.14	 84.95	
     9.49000	  734.500	 57.06	 84.36	
     9.50000	  718.000	 57.08	 84.14	
     9.51000	  706.500	 57.04	 83.92	
     9.52000	  690.000	 56.96	 83.58	
     9.53000	  679.500	 57.04	 83.84	
     9.54000	  662.500	 57.26	 84.09	
     9.55000	  647.000	 57.34	 84.36	
     9.56000	  623.500	 57.19	 84.47	
     9.57000	  605.500	 57.07	 85.10	
     9.58000	  585.000	 57.24	 85.03	
     9.59000	  569.000	 57.26	 84.96	
     9.60000	  555.500	 57.21	 85.18	
     9.61000	  548.000	 57.16	 84.45	
     9.62000	  538.000	 57.21	 84.31	
     9.63000	  527.500	 57.19	 84.19	
     9.64000	  519.000	 57.30	 83.53	
     9.65000	  508.500	 57.28	 83.33	
     9.66000	  496.000	 57.45	 83.59	
     9.67000	  486.000	 57.39	 84.04	
     9.68000	  471.000	 57.15	 84.11	
     9.69000	  465.500	 57.38	 83.95	
     9.70000	  454.500	 57.33	 83.70	
     9.71000	  439.000	 57.49	 83.50	
     9.72000	  430.000	 57.20	 84.03	
     9.73000	  417.000	 57.17	 83.55	
     9.74000	  406.500	 57.16	 83.82	
     9.75000	  398.500	 57.07	 84.62	
     9.76000	  388.000	 56.89	 85.46	
     9.77000	  371.500	 57.02	 85.38	
     9.78000	  356.500	 56.70	 85.95	
     9.79000	  350.500	 56.67	 86.33	
     9.80000	  337.500	 56.50	 86.29	
     9.81000	  323.500	 56.92	 86.28	
     9.82000	  315.000	 56.95	 85.95	
     9.83000	  300.000	 56.90	 85.10	
     9.84000	  297.500	 56.53	 84.82	
     9.85000	  288.500	 56.37	 85.87	
     9.86000	  277.500	 56.84	 85.94	
     9.87000	  270.000	 56.83	 85.89	
     9.88000	  261.500	 57.03	 85.75	
     9.89000	  256.000	 57.01	 85.57	
     9.90000	  248.000	 56.96	 85.85	
     9.91000	  243.000	 56.98	 85.86	
     9.92000	  236.500	 56.95	 85.68	
     9.93000	  226.500	 56.63	 86.02	
     9.94000	  221.500	 56.69	 85.81	
     9.95000	  213.000	 56.57	 85.75	
     9.96000	  205.500	 56.29	 85.80	
     9.97000	  194.500	 56.67	 85.93	
     9.98000	  192.000	 56.61	 85.83	
     9.99000	  187.000	 56.63	 85.61	
    10.00000	  175.500	 56.20	 84.17	
    10.01000	  171.500	 56.17	 84.50	
    10.02000	  163.000	 56.23	 83.62	
    10.03000	  156.500	 56.09	 83.02	
    10.04000	  153.500	 55.88	 82.95	
    10.05000	  148.500	 55.57	 83.69	
    10.06000	  142.500	 55.74	 83.70	
    10.07000	  137.500	 55.33	 84.85	
    10.08000	  135.500	 55.55	 85.22	
    10.09000	  129.000	 54.92	 85.78	
    10.10000	  123.000	 54.39	 85.33	
    10.11000	  118.000	 53.60	 85.85	
    10.12000	  112.500	 53.84	 87.00	
    10.13000	  109.500	 53.95	 86.96	
    10.14000	  108.000	 53.84	 86.06	
    10.15000	  107.500	 53.93	 85.88	
    10.16000	   99.000	 53.89	 87.53	
    10.17000	   95.500	 53.85	 89.14	
    10.18000	   94.000	 54.36	 88.88	
    10.19000	   91.500	 54.18	 90.52	
    10.20000	   91.500	 54.18	 90.46	
    10.21000	   87.000	 54.60	 92.30	
    10.22000	   80.500	 53.63	 90.78	
    10.23000	   80.500	 53.51	 90.65	
    10.24000	   74.500	 53.72	 88.96	
    10.25000	   70.000	 53.43	 86.29	
    10.26000	   66.500	 53.65	 85.83	
    10.27000	   65.500	 53.85	 85.99	
    10.28000	   62.000	 53.23	 84.35	
    10.29000	   56.000	 51.79	 84.91	
    10.30000	   55.500	 51.67	 84.37	
    10.31000	   44.500	 52.87	 88.82	
    10.32000	   43.000	 51.86	 88.26	
    10.33000	   41.000	 50.73	 86.46	
    10.34000	   38.000	 51.32	 89.74	
    10.35000	   37.500	 51.53	 89.40	
    10.36000	   35.500	 50.21	 86.27	
    10.37000	   33.000	 49.85	 91.36	
    10.38000	   29.000	 50.52	 85.34	
    10.39000	   17.000	 49.71	 89.12	
    10.40000	   16.000	 51.25	 73.75	
    10.41000	   12.000	 50.00	 75.00	
    10.42000	    8.000	 45.00	 97.50	
    10.43000	    6.000	 41.67	 88.33	
    10.44000	    6.000	 41.67	 88.33	
    10.45000	    6.000	 41.67	 88.33	
    10.46000	    4.000	 35.00	120.00	
    10.47000	    4.000	 35.00	120.00	
    10.48000	    4.000	 35.00	120.00	
    10.49000	    4.000	 35.00	120.00	
    10.50000	    4.000	 35.00	120.00	
    10.51000	    4.000	 35.00	120.00	
    10.52000	    2.000	 35.00	115.00	
    10.53000	    4.000	 35.00	120.00	
    10.54000	    2.000	 35.00	125.00	
    10.55000	    2.000	 35.00	115.00	
    10.56000	    0.000	  0.00	  0.00	
    10.57000	    0.000	  0.00	  0.00	
    10.58000	    0.000	  0.00	  0.00	
    10.59000	    0.000	  0.00	  0.00	
    10.60000	    0.000	  0.00	  0.00	
    10.61000	    0.000	  0.00	  0.00	
    10.62000	    0.000	  0.00	  0.00	
    10.63000	    0.000	  0.00	  0.00	
    10.64000	    0.000	  0.00	  0.00	
    10.65000	    0.000	  0.00	  0.00	
    10.66000	    0.000	  0.00	  0.00	
    10.67000	    0.000	  0.00	  0.00	
    10.68000	    0.000	  0.00	  0.00	
    10.69000	    0.000	  0.00	  0.00	
    10.70000	    0.000	  0.00	  0.00	
    10.71000	    0.000	  0.00	  0.00	
    10.72000	    0.000	  0.00	  0.00	
    10.73000	    0.000	  0.00	  0.00	
    10.74000	    0.000	  0.00	  0.00	
    10.75000	    0.000	  0.00	  0.00	
    10.76000	    0.000	  0.00	  0.00	
    10.77000	    0.000	  0.00	  0.00	
    10.78000	    0.000	  0.00	  0.00	
    10.79000	    0.000	  0.00	  0.00	
    10.80000	    0.000	  0.00	  0.00	
    10.81000	    0.000	  0.00	  0.00	
    10.82000	    0.000	  0.00	  0.00	
    10.83000	    0.000	  0.00	  0.00	
    10.84000	    0.000	  0.00	  0.00	
    10.85000	    0.000	  0.00	  0.00	
    10.86000	    0.000	  0.00	  0.00	
    10.87000	    0.000	  0.00	  0.00	
    10.88000	    0.000	  0.00	  0.00	
    10.89000	    0.000	  0.00	  0.00	
    10.90000	    0.000	  0.00	  0.00	
    10.91000	    0.000	  0.00	  0.00	
    10.92000	    0.000	  0.00	  0.00	
    10.93000	    0.000	  0.00	  0.00	
    10.94000	    0.000	  0.00	  0.00	
    10.95000	    0.000	  0.00	  0.00	
    10.96000	    0.000	  0.00	  0.00	
    10.97000	    0.000	  0.00	  0.00	
    10.98000	    0.000	  0.00	  0.00	
    10.99000	    0.000	  0.00	  0.00	
    11.00000	    0.000	  0.00	  0.00	
    11.01000	    0.000	  0.00	  0.00	
    11.02000	    0.000	  0.00	  0.00	
    11.03000	    0.000	  0.00	  0.00	
    11.04000	    0.000	  0.00	  0.00	
    11.05000	    0.000	  0.00	  0.00	
    11.06000	    0.000	  0.00	  0.00	
    11.07000	    0.000	  0.00	  0.00	
    11.08000	    0.000	  0.00	  0.00	
    11.09000	    0.000	  0.00	  0.00	
    11.10000	    0.000	  0.00	  0.00	
    11.11000	    0.000	  0.00	  0.00	
    11.12000	    0.000	  0.00	  0.00	
    11.13000	    0.000	  0.00	  0.00	
    11.14000	    0.000	  0.00	  0.00	
    11.15000	    0.000	  0.00	  0.00	
    11.16000	    0.000	  0.00	  0.00	
    11.17000	    0.000	  0.00	  0.00	
    11.18000	    0.000	  0.00	  0.00	
    11.19000	    0.000	  0.00	  0.00	
    11.20000	    0.000	  0.00	  0.00	
    11.21000	    0.000	  0.00	  0.00	
    11.22000	    0.000	  0.00	  0.00	
    11.23000	    2.000	 35.00	115.00	
    11.24000	    0.000	  0.00	  0.00	
    11.25000	    2.000	 35.00	115.00	
    11.26000	    2.000	 35.00	115.00	
    11.27000	    4.000	 35.00	120.00	
    11.28000	    2.000	 35.00	115.00	
    11.29000	    4.000	 35.00	 60.00	
    11.30000	    4.000	 35.00	120.00	
    11.31000	    6.000	 35.00	 81.67	
    11.32000	    4.000	 35.00	 60.00	
    11.33000	    4.000	 35.00	 60.00	
    11.34000	    8.000	 32.50	 90.00	
    11.35000	    6.000	 35.00	 81.67	
    11.36000	    8.000	 32.50	 90.00	
    11.37000	    8.500	 35.00	 56.76	
    11.38000	   10.000	 35.00	 73.00	
    11.39000	   14.500	 36.38	 68.45	
    11.40000	   16.000	 37.50	 63.75	
    11.41000	   16.500	 41.06	 48.64	
    11.42000	   16.500	 37.42	 61.97	
    11.43000	   24.500	 40.71	 49.08	
    11.44000	   22.500	 40.33	 51.22	
    11.45000	   24.500	 40.71	 49.08	
    11.46000	   24.500	 40.71	 49.08	
    11.47000	   27.000	 38.89	 53.15	
    11.48000	   25.500	 41.08	 47.35	
    11.49000	   26.500	 41.23	 46.51	
    11.50000	   30.500	 39.10	 48.93	
    11.51000	   29.000	 41.03	 52.07	
    11.52000	   35.000	 40.00	 52.57	
    11.53000	   35.000	 41.71	 48.00	
    11.54000	   37.500	 40.33	 51.27	
    11.55000	   39.000	 40.51	 50.26	
    11.56000	   42.000	 41.19	 54.05	
    11.57000	   39.500	 40.57	 50.06	
    11.58000	   42.500	 41.12	 52.65	
    11.59000	   42.000	 41.19	 54.05	
    11.60000	   44.000	 42.27	 58.18	
    11.61000	   48.500	 43.76	 58.92	
    11.62000	   49.500	 43.59	 58.94	
    11.63000	   49.500	 43.79	 58.03	
    11.64000	   50.000	 43.70	 58.70	
    11.65000	   49.500	 43.79	 58.03	
    11.66000	   50.000	 43.70	 58.70	
    11.67000	   50.500	 43.61	 59.26	
    11.68000	   50.500	 43.81	 58.17	
    11.69000	   53.500	 44.91	 61.45	
    11.70000	   52.000	 43.65	 57.69	
    11.71000	   51.500	 43.74	 57.04	
    11.72000	   52.500	 43.76	 57.48	
    11.73000	   54.500	 44.91	 60.69	
    11.74000	   52.500	 44.05	 56.43	
    11.75000	   54.500	 44.63	 55.46	
    11.76000	   57.500	 45.87	 59.00	
    11.77000	   59.000	 45.85	 57.97	
    11.78000	   59.000	 46.02	 57.97	
    11.79000	   59.500	 45.92	 57.61	
    11.80000	   57.500	 44.91	 54.57	
    11.81000	   61.000	 45.66	 57.21	
    11.82000	   61.500	 46.79	 55.98	
    11.83000	   61.500	 45.57	 56.87	
    11.84000	   59.500	 45.92	 57.61	
    11.85000	   63.000	 46.59	 62.94	
    11.86000	   62.000	 45.40	 57.34	
    11.87000	   62.000	 46.69	 59.84	
    11.88000	   63.500	 46.50	 62.48	
    11.89000	   62.000	 45.40	 57.34	
    11.90000	   63.500	 46.50	 58.39	
    11.91000	   67.500	 46.48	 58.56	
    11.92000	   65.500	 45.61	 59.96	
    11.93000	   70.000	 47.00	 57.50	
    11.94000	   72.500	 47.48	 59.41	
    11.95000	   71.500	 46.89	 59.41	
    11.96000	   72.500	 47.48	 59.41	
    11.97000	   72.500	 47.41	 59.55	
    11.98000	   73.500	 47.45	 58.81	
    11.99000	   71.000	 46.83	 59.72	
    12.00000	   72.000	 47.43	 59.79	
    12.01000	   73.500	 47.38	 58.88	
    12.02000	   73.000	 47.47	 59.04	
    12.03000	   73.000	 47.40	 59.18	
    12.04000	   73.500	 47.38	 58.88	
    12.05000	   71.500	 46.96	 56.61	
    12.06000	   75.000	 47.87	 60.93	
    12.07000	   74.500	 47.75	 60.37	
    12.08000	   74.000	 47.36	 59.59	
    12.09000	   74.500	 47.48	 58.36	
    12.10000	   73.500	 47.31	 58.27	
    12.11000	   74.000	 47.43	 58.72	
    12.12000	   76.500	 47.81	 60.29	
    12.13000	   76.000	 47.83	 60.59	
    12.14000	   74.500	 47.42	 58.49	
    12.15000	   79.000	 47.85	 62.53	
    12.16000	   81.000	 48.52	 64.32	
    12.17000	   76.500	 48.01	 61.01	
    12.18000	   76.500	 47.68	 60.95	
    12.19000	   77.500	 48.03	 62.23	
    12.20000	   78.500	 47.99	 62.20	
    12.21000	   78.000	 48.27	 61.35	
    12.22000	   77.000	 47.99	 60.00	
    12.23000	   79.000	 48.16	 61.46	
    12.24000	   77.500	 48.23	 60.10	
    12.25000	   79.500	 48.65	 61.73	
    12.26000	   79.500	 47.70	 61.10	
    12.27000	   83.500	 48.83	 63.80	
    12.28000	   83.000	 48.73	 64.64	
    12.29000	   80.500	 48.73	 62.70	
    12.30000	   79.500	 47.83	 60.85	
    12.31000	   83.500	 48.77	 64.40	
    12.32000	   81.000	 48.46	 62.90	
    12.33000	   79.000	 47.97	 62.09	
    12.34000	   81.000	 48.46	 61.36	
    12.35000	   76.500	 47.61	 59.38	
    12.36000	   74.000	 47.09	 60.14	
    12.37000	   67.500	 46.04	 58.33	
    12.38000	   67.000	 46.12	 57.69	
    12.39000	   59.500	 44.83	 58.11	
    12.40000	   55.000	 43.27	 57.18	
    12.41000	   47.000	 41.60	 53.51	
    12.42000	   45.000	 41.67	 54.78	
    12.43000	   37.000	 39.32	 55.81	
    12.44000	   31.000	 38.23	 60.65	
    12.45000	   25.000	 36.20	 69.20	
    12.46000	   17.500	 32.43	 79.57	
    12.47000	   17.500	 32.43	 79.57	
    12.48000	   13.500	 27.22	101.67	
    12.49000	   11.500	 25.87	118.48	
    12.50000	    7.000	 24.29	115.00	
    12.51000	    6.500	 24.23	115.00	
    12.52000	    4.000	 20.00	115.00	
    12.53000	    2.000	 25.00	115.00	
    12.54000	    0.000	  0.00	  0.00	
    12.55000	    0.000	  0.00	  0.00	
    12.56000	    0.000	  0.00	  0.00	
    12.57000	    0.000	  0.00	  0.00	
    12.58000	    0.000	  0.00	  0.00	
    12.59000	    0.000	  0.00	  0.00	
    12.60000	    0.000	  0.00	  0.00	
    12.61000	    0.000	  0.00	  0.00	
    12.62000	    0.000	  0.00	  0.00	
    12.63000	    0.000	  0.00	  0.00	
    12.64000	    0.000	  0.00	  0.00	
    12.65000	    0.000	  0.00	  0.00	
    12.66000	    0.000	  0.00	  0.00	
    12.67000	    0.000	  0.00	  0.00	
    12.68000	    0.000	  0.00	  0.00	
    12.69000	    0.000	  0.00	  0.00	
    12.70000	    0.000	  0.00	  0.00	
    12.71000	    0.000	  0.00	  0.00	
    12.72000	    0.000	  0.00	  0.00	
    12.73000	    0.000	  0.00	  0.00	
    12.74000	    0.000	  0.00	  0.00	
    12.75000	    0.000	  0.00	  0.00	
    12.76000	    0.000	  0.00	  0.00	
    12.77000	    0.000	  0.00	  0.00	
    12.78000	    0.000	  0.00	  0.00	
    12.79000	    0.000	  0.00	  0.00	
    12.80000	    0.000	  0.00	  0.00	
    12.81000	    0.000	  0.00	  0.00	
    12.82000	    0.000	  0.00	  0.00	
    12.83000	    0.000	  0.00	  0.00	
    12.84000	    0.000	  0.00	  0.00	
    12.85000	    0.000	  0.00	  0.00	
    12.86000	    0.000	  0.00	  0.00	
    12.87000	    0.000	  0.00	  0.00	
    12.88000	    0.000	  0.00	  0.00	
    12.89000	    0.000	  0.00	  0.00	
    12.90000	    0.000	  0.00	  0.00	
    12.91000	    0.000	  0.00	  0.00	
    12.92000	    0.000	  0.00	  0.00	
    12.93000	    0.000	  0.00	  0.00	
    12.94000	    0.000	  0.00	  0.00	
    12.95000	    0.000	  0.00	  0.00	
    12.96000	    0.000	  0.00	  0.00	
    12.97000	    0.000	  0.00	  0.00	
    12.98000	    0.000	  0.00	  0.00	
    12.99000	    0.000	  0.00	  0.00	
    13.00000	    0.000	  0.00	  0.00	
    13.01000	    0.000	  0.00	  0.00	
    13.02000	    0.000	  0.00	  0.00	
    13.03000	    0.000	  0.00	  0.00	
    13.04000	    0.000	  0.00	  0.00	
    13.05000	    0.000	  0.00	  0.00	
    13.06000	    0.000	  0.00	  0.00	
    13.07000	    0.000	  0.00	  0.00	
    13.08000	    0.000	  0.00	  0.00	
    13.09000	    0.000	  0.00	  0.00	
    13.10000	    0.000	  0.00	  0.00	
    13.11000	    0.000	  0.00	  0.00	
    13.12000	    0.000	  0.00	  0.00	
    13.13000	    0.000	  0.00	  0.00	
    13.14000	    0.000	  0.00	  0.00	
    13.15000	    0.000	  0.00	  0.00	
    13.16000	    0.000	  0.00	  0.00	
    13.17000	    0.000	  0.00	  0.00	
    13.18000	    0.000	  0.00	  0.00	
