file name:  S2128_09_1_2_MPa_PXF440_220809_202.mat	date/time  01.09.22 12.52
sensor type:  s2128_09_1_2_mpa_pxf440_220809 
force time integral[N*s]:       620.010
pressure time integral [kPa*s]:      395.050
total time [secs]:  9.470	time per frame [secs]:  0.01000	scanning rate [Hz]:   100


time[secs]    	force[N]   	x[mm]     	y[mm] 	

     0.01000	    0.000	  0.00	  0.00	
     0.02000	    0.000	  0.00	  0.00	
     0.03000	    0.000	  0.00	  0.00	
     0.04000	    0.000	  0.00	  0.00	
     0.05000	    0.000	  0.00	  0.00	
     0.06000	    0.000	  0.00	  0.00	
     0.07000	    0.000	  0.00	  0.00	
     0.08000	    0.000	  0.00	  0.00	
     0.09000	    0.000	  0.00	  0.00	
     0.10000	    0.000	  0.00	  0.00	
     0.11000	    0.000	  0.00	  0.00	
     0.12000	    0.000	  0.00	  0.00	
     0.13000	    0.000	  0.00	  0.00	
     0.14000	    0.000	  0.00	  0.00	
     0.15000	    0.000	  0.00	  0.00	
     0.16000	    0.000	  0.00	  0.00	
     0.17000	    0.000	  0.00	  0.00	
     0.18000	    0.000	  0.00	  0.00	
     0.19000	    0.000	  0.00	  0.00	
     0.20000	    0.000	  0.00	  0.00	
     0.21000	    0.000	  0.00	  0.00	
     0.22000	    0.000	  0.00	  0.00	
     0.23000	    0.000	  0.00	  0.00	
     0.24000	    0.000	  0.00	  0.00	
     0.25000	    0.000	  0.00	  0.00	
     0.26000	    0.000	  0.00	  0.00	
     0.27000	    0.000	  0.00	  0.00	
     0.28000	    0.000	  0.00	  0.00	
     0.29000	    0.000	  0.00	  0.00	
     0.30000	    0.000	  0.00	  0.00	
     0.31000	    0.000	  0.00	  0.00	
     0.32000	    0.000	  0.00	  0.00	
     0.33000	    0.000	  0.00	  0.00	
     0.34000	    0.000	  0.00	  0.00	
     0.35000	    0.000	  0.00	  0.00	
     0.36000	    0.000	  0.00	  0.00	
     0.37000	    0.000	  0.00	  0.00	
     0.38000	    0.000	  0.00	  0.00	
     0.39000	    0.000	  0.00	  0.00	
     0.40000	    0.000	  0.00	  0.00	
     0.41000	    0.000	  0.00	  0.00	
     0.42000	    0.000	  0.00	  0.00	
     0.43000	    0.000	  0.00	  0.00	
     0.44000	    0.000	  0.00	  0.00	
     0.45000	    0.000	  0.00	  0.00	
     0.46000	    0.000	  0.00	  0.00	
     0.47000	    0.000	  0.00	  0.00	
     0.48000	    0.000	  0.00	  0.00	
     0.49000	    0.000	  0.00	  0.00	
     0.50000	    0.000	  0.00	  0.00	
     0.51000	    0.000	  0.00	  0.00	
     0.52000	    0.000	  0.00	  0.00	
     0.53000	    0.000	  0.00	  0.00	
     0.54000	    0.000	  0.00	  0.00	
     0.55000	    0.000	  0.00	  0.00	
     0.56000	    0.000	  0.00	  0.00	
     0.57000	    0.000	  0.00	  0.00	
     0.58000	    0.000	  0.00	  0.00	
     0.59000	    0.000	  0.00	  0.00	
     0.60000	    0.000	  0.00	  0.00	
     0.61000	    0.000	  0.00	  0.00	
     0.62000	    0.000	  0.00	  0.00	
     0.63000	    0.000	  0.00	  0.00	
     0.64000	    0.000	  0.00	  0.00	
     0.65000	    0.000	  0.00	  0.00	
     0.66000	    0.000	  0.00	  0.00	
     0.67000	    0.000	  0.00	  0.00	
     0.68000	    0.000	  0.00	  0.00	
     0.69000	    0.000	  0.00	  0.00	
     0.70000	    0.000	  0.00	  0.00	
     0.71000	    0.000	  0.00	  0.00	
     0.72000	    0.000	  0.00	  0.00	
     0.73000	    0.000	  0.00	  0.00	
     0.74000	    0.000	  0.00	  0.00	
     0.75000	    0.000	  0.00	  0.00	
     0.76000	    0.000	  0.00	  0.00	
     0.77000	    0.000	  0.00	  0.00	
     0.78000	    0.000	  0.00	  0.00	
     0.79000	    0.000	  0.00	  0.00	
     0.80000	    0.000	  0.00	  0.00	
     0.81000	    0.000	  0.00	  0.00	
     0.82000	    0.000	  0.00	  0.00	
     0.83000	    0.000	  0.00	  0.00	
     0.84000	    0.000	  0.00	  0.00	
     0.85000	    0.000	  0.00	  0.00	
     0.86000	    0.000	  0.00	  0.00	
     0.87000	    0.000	  0.00	  0.00	
     0.88000	    0.000	  0.00	  0.00	
     0.89000	    0.000	  0.00	  0.00	
     0.90000	    0.000	  0.00	  0.00	
     0.91000	    0.000	  0.00	  0.00	
     0.92000	    0.000	  0.00	  0.00	
     0.93000	    0.000	  0.00	  0.00	
     0.94000	    0.000	  0.00	  0.00	
     0.95000	    0.000	  0.00	  0.00	
     0.96000	    0.000	  0.00	  0.00	
     0.97000	    0.000	  0.00	  0.00	
     0.98000	    0.000	  0.00	  0.00	
     0.99000	    0.000	  0.00	  0.00	
     1.00000	    0.000	  0.00	  0.00	
     1.01000	    0.000	  0.00	  0.00	
     1.02000	    0.000	  0.00	  0.00	
     1.03000	    0.000	  0.00	  0.00	
     1.04000	    0.000	  0.00	  0.00	
     1.05000	    0.000	  0.00	  0.00	
     1.06000	    0.000	  0.00	  0.00	
     1.07000	    0.000	  0.00	  0.00	
     1.08000	    0.000	  0.00	  0.00	
     1.09000	    0.000	  0.00	  0.00	
     1.10000	    0.000	  0.00	  0.00	
     1.11000	    0.000	  0.00	  0.00	
     1.12000	    0.000	  0.00	  0.00	
     1.13000	    0.000	  0.00	  0.00	
     1.14000	    0.000	  0.00	  0.00	
     1.15000	    0.000	  0.00	  0.00	
     1.16000	    0.000	  0.00	  0.00	
     1.17000	    0.000	  0.00	  0.00	
     1.18000	    0.000	  0.00	  0.00	
     1.19000	    0.000	  0.00	  0.00	
     1.20000	    0.000	  0.00	  0.00	
     1.21000	    0.000	  0.00	  0.00	
     1.22000	    0.000	  0.00	  0.00	
     1.23000	    0.000	  0.00	  0.00	
     1.24000	    0.000	  0.00	  0.00	
     1.25000	    0.000	  0.00	  0.00	
     1.26000	    0.000	  0.00	  0.00	
     1.27000	    0.000	  0.00	  0.00	
     1.28000	    0.000	  0.00	  0.00	
     1.29000	    0.000	  0.00	  0.00	
     1.30000	    0.000	  0.00	  0.00	
     1.31000	    0.000	  0.00	  0.00	
     1.32000	    0.000	  0.00	  0.00	
     1.33000	    0.000	  0.00	  0.00	
     1.34000	    0.000	  0.00	  0.00	
     1.35000	    0.000	  0.00	  0.00	
     1.36000	    0.000	  0.00	  0.00	
     1.37000	    0.000	  0.00	  0.00	
     1.38000	    0.000	  0.00	  0.00	
     1.39000	    0.000	  0.00	  0.00	
     1.40000	    0.000	  0.00	  0.00	
     1.41000	    0.000	  0.00	  0.00	
     1.42000	    0.000	  0.00	  0.00	
     1.43000	    0.000	  0.00	  0.00	
     1.44000	    0.000	  0.00	  0.00	
     1.45000	    0.000	  0.00	  0.00	
     1.46000	    0.000	  0.00	  0.00	
     1.47000	    0.000	  0.00	  0.00	
     1.48000	    0.000	  0.00	  0.00	
     1.49000	    0.000	  0.00	  0.00	
     1.50000	    0.000	  0.00	  0.00	
     1.51000	    0.000	  0.00	  0.00	
     1.52000	    0.000	  0.00	  0.00	
     1.53000	    0.000	  0.00	  0.00	
     1.54000	    0.000	  0.00	  0.00	
     1.55000	    0.000	  0.00	  0.00	
     1.56000	    0.000	  0.00	  0.00	
     1.57000	    0.000	  0.00	  0.00	
     1.58000	    0.000	  0.00	  0.00	
     1.59000	    0.000	  0.00	  0.00	
     1.60000	    0.000	  0.00	  0.00	
     1.61000	    0.000	  0.00	  0.00	
     1.62000	    0.000	  0.00	  0.00	
     1.63000	    0.000	  0.00	  0.00	
     1.64000	    0.000	  0.00	  0.00	
     1.65000	    0.000	  0.00	  0.00	
     1.66000	    0.000	  0.00	  0.00	
     1.67000	    0.000	  0.00	  0.00	
     1.68000	    0.000	  0.00	  0.00	
     1.69000	    0.000	  0.00	  0.00	
     1.70000	    0.000	  0.00	  0.00	
     1.71000	    0.000	  0.00	  0.00	
     1.72000	    0.000	  0.00	  0.00	
     1.73000	    0.000	  0.00	  0.00	
     1.74000	    0.000	  0.00	  0.00	
     1.75000	    0.000	  0.00	  0.00	
     1.76000	    0.000	  0.00	  0.00	
     1.77000	    0.000	  0.00	  0.00	
     1.78000	    0.000	  0.00	  0.00	
     1.79000	    0.000	  0.00	  0.00	
     1.80000	    0.000	  0.00	  0.00	
     1.81000	    0.000	  0.00	  0.00	
     1.82000	    0.000	  0.00	  0.00	
     1.83000	    0.000	  0.00	  0.00	
     1.84000	    0.000	  0.00	  0.00	
     1.85000	    0.000	  0.00	  0.00	
     1.86000	    0.000	  0.00	  0.00	
     1.87000	    0.000	  0.00	  0.00	
     1.88000	    0.000	  0.00	  0.00	
     1.89000	    0.000	  0.00	  0.00	
     1.90000	    0.000	  0.00	  0.00	
     1.91000	    0.000	  0.00	  0.00	
     1.92000	    0.000	  0.00	  0.00	
     1.93000	    0.000	  0.00	  0.00	
     1.94000	    0.000	  0.00	  0.00	
     1.95000	    0.000	  0.00	  0.00	
     1.96000	    0.000	  0.00	  0.00	
     1.97000	    0.000	  0.00	  0.00	
     1.98000	    0.000	  0.00	  0.00	
     1.99000	    0.000	  0.00	  0.00	
     2.00000	    0.000	  0.00	  0.00	
     2.01000	    0.000	  0.00	  0.00	
     2.02000	    0.000	  0.00	  0.00	
     2.03000	    0.000	  0.00	  0.00	
     2.04000	    0.000	  0.00	  0.00	
     2.05000	    0.000	  0.00	  0.00	
     2.06000	    0.000	  0.00	  0.00	
     2.07000	    0.000	  0.00	  0.00	
     2.08000	    0.000	  0.00	  0.00	
     2.09000	    0.000	  0.00	  0.00	
     2.10000	    0.000	  0.00	  0.00	
     2.11000	    0.000	  0.00	  0.00	
     2.12000	    0.000	  0.00	  0.00	
     2.13000	    0.000	  0.00	  0.00	
     2.14000	    0.000	  0.00	  0.00	
     2.15000	    0.000	  0.00	  0.00	
     2.16000	    0.000	  0.00	  0.00	
     2.17000	    0.000	  0.00	  0.00	
     2.18000	    0.000	  0.00	  0.00	
     2.19000	    0.000	  0.00	  0.00	
     2.20000	    0.000	  0.00	  0.00	
     2.21000	    0.000	  0.00	  0.00	
     2.22000	    0.000	  0.00	  0.00	
     2.23000	    0.000	  0.00	  0.00	
     2.24000	    0.000	  0.00	  0.00	
     2.25000	    0.000	  0.00	  0.00	
     2.26000	    0.000	  0.00	  0.00	
     2.27000	    0.000	  0.00	  0.00	
     2.28000	    0.000	  0.00	  0.00	
     2.29000	    0.000	  0.00	  0.00	
     2.30000	    0.000	  0.00	  0.00	
     2.31000	    0.000	  0.00	  0.00	
     2.32000	    0.000	  0.00	  0.00	
     2.33000	    0.000	  0.00	  0.00	
     2.34000	    0.000	  0.00	  0.00	
     2.35000	    0.000	  0.00	  0.00	
     2.36000	    0.000	  0.00	  0.00	
     2.37000	    0.000	  0.00	  0.00	
     2.38000	    0.000	  0.00	  0.00	
     2.39000	    0.000	  0.00	  0.00	
     2.40000	    0.000	  0.00	  0.00	
     2.41000	    0.000	  0.00	  0.00	
     2.42000	    0.000	  0.00	  0.00	
     2.43000	    0.000	  0.00	  0.00	
     2.44000	    0.000	  0.00	  0.00	
     2.45000	    0.000	  0.00	  0.00	
     2.46000	    0.000	  0.00	  0.00	
     2.47000	    0.000	  0.00	  0.00	
     2.48000	    0.000	  0.00	  0.00	
     2.49000	    0.000	  0.00	  0.00	
     2.50000	    0.000	  0.00	  0.00	
     2.51000	    0.000	  0.00	  0.00	
     2.52000	    0.000	  0.00	  0.00	
     2.53000	    0.000	  0.00	  0.00	
     2.54000	    0.000	  0.00	  0.00	
     2.55000	    0.000	  0.00	  0.00	
     2.56000	    0.000	  0.00	  0.00	
     2.57000	    0.000	  0.00	  0.00	
     2.58000	    0.000	  0.00	  0.00	
     2.59000	    0.000	  0.00	  0.00	
     2.60000	    0.000	  0.00	  0.00	
     2.61000	    0.000	  0.00	  0.00	
     2.62000	    0.000	  0.00	  0.00	
     2.63000	    0.000	  0.00	  0.00	
     2.64000	    0.000	  0.00	  0.00	
     2.65000	    0.000	  0.00	  0.00	
     2.66000	    0.000	  0.00	  0.00	
     2.67000	    0.000	  0.00	  0.00	
     2.68000	    0.000	  0.00	  0.00	
     2.69000	    0.000	  0.00	  0.00	
     2.70000	    2.000	 95.00	125.00	
     2.71000	    0.000	  0.00	  0.00	
     2.72000	    2.000	 95.00	125.00	
     2.73000	    2.000	 95.00	125.00	
     2.74000	    0.000	  0.00	  0.00	
     2.75000	    2.000	 95.00	125.00	
     2.76000	    2.000	 95.00	125.00	
     2.77000	    2.000	 95.00	125.00	
     2.78000	    2.000	 95.00	125.00	
     2.79000	    2.000	 95.00	125.00	
     2.80000	    2.000	 95.00	125.00	
     2.81000	    2.000	 95.00	125.00	
     2.82000	    2.000	 95.00	125.00	
     2.83000	    2.000	 95.00	125.00	
     2.84000	    2.000	 95.00	125.00	
     2.85000	    2.000	 95.00	125.00	
     2.86000	    2.000	 95.00	125.00	
     2.87000	    2.000	 95.00	125.00	
     2.88000	    2.000	 95.00	125.00	
     2.89000	    2.000	 95.00	125.00	
     2.90000	    2.000	 95.00	125.00	
     2.91000	    2.000	 95.00	125.00	
     2.92000	    2.000	 95.00	125.00	
     2.93000	    2.000	 95.00	125.00	
     2.94000	    2.000	 95.00	125.00	
     2.95000	    2.000	 95.00	125.00	
     2.96000	    2.000	 95.00	125.00	
     2.97000	    2.000	 95.00	125.00	
     2.98000	    2.000	 95.00	125.00	
     2.99000	    2.000	 95.00	125.00	
     3.00000	    2.000	 95.00	125.00	
     3.01000	    2.000	 95.00	125.00	
     3.02000	    2.000	 95.00	125.00	
     3.03000	    2.000	 95.00	125.00	
     3.04000	    2.000	 95.00	125.00	
     3.05000	    2.000	 95.00	125.00	
     3.06000	    2.500	 95.00	125.00	
     3.07000	    2.500	 95.00	125.00	
     3.08000	    2.500	 95.00	125.00	
     3.09000	    2.500	 95.00	125.00	
     3.10000	    2.500	 95.00	125.00	
     3.11000	    2.500	 95.00	125.00	
     3.12000	    2.500	 95.00	125.00	
     3.13000	    6.500	 91.92	121.92	
     3.14000	    6.500	 91.92	121.92	
     3.15000	    6.500	 91.92	121.92	
     3.16000	    6.500	 91.92	121.92	
     3.17000	    6.500	 91.92	121.92	
     3.18000	    7.000	 92.14	122.14	
     3.19000	    6.500	 91.92	121.92	
     3.20000	    7.000	 92.14	122.14	
     3.21000	    6.500	 91.92	121.92	
     3.22000	    9.000	 86.11	105.00	
     3.23000	    6.500	 91.92	121.92	
     3.24000	    6.500	 91.92	121.92	
     3.25000	    6.500	 91.92	121.92	
     3.26000	    6.500	 91.92	121.92	
     3.27000	    7.000	 92.14	122.14	
     3.28000	    9.000	 90.56	120.56	
     3.29000	    7.000	 92.14	122.14	
     3.30000	    7.000	 92.14	122.14	
     3.31000	    9.000	 90.56	120.56	
     3.32000	   11.000	 91.36	117.73	
     3.33000	    7.000	 92.14	122.14	
     3.34000	    9.000	 90.56	120.56	
     3.35000	    9.000	 90.56	120.56	
     3.36000	    9.000	 90.56	120.56	
     3.37000	    9.000	 92.78	118.33	
     3.38000	   11.000	 91.36	117.73	
     3.39000	   11.000	 91.36	117.73	
     3.40000	   11.000	 91.36	117.73	
     3.41000	   11.000	 91.36	117.73	
     3.42000	   11.000	 91.36	117.73	
     3.43000	   11.000	 91.36	117.73	
     3.44000	   11.500	 91.52	117.61	
     3.45000	   11.500	 91.52	117.61	
     3.46000	   11.500	 91.52	117.61	
     3.47000	   11.500	 91.52	117.61	
     3.48000	   11.000	 91.36	117.73	
     3.49000	   11.500	 91.52	117.61	
     3.50000	   11.000	 91.36	117.73	
     3.51000	   11.000	 91.36	117.73	
     3.52000	   13.500	 90.56	115.74	
     3.53000	   11.500	 91.52	117.61	
     3.54000	   11.500	 91.52	117.61	
     3.55000	   13.000	 87.31	106.54	
     3.56000	   11.500	 91.52	117.61	
     3.57000	   11.500	 91.52	117.61	
     3.58000	   13.500	 87.59	106.85	
     3.59000	   11.500	 91.52	117.61	
     3.60000	   11.500	 91.52	117.61	
     3.61000	   11.500	 91.52	117.61	
     3.62000	   15.500	 87.26	106.61	
     3.63000	   11.500	 91.52	117.61	
     3.64000	   13.500	 90.56	115.74	
     3.65000	   11.500	 91.52	117.61	
     3.66000	   13.500	 90.56	115.74	
     3.67000	   16.000	 87.19	107.19	
     3.68000	   13.500	 90.56	115.74	
     3.69000	   18.000	 84.72	108.06	
     3.70000	   16.000	 87.19	107.19	
     3.71000	   16.000	 87.19	107.19	
     3.72000	   16.000	 84.69	108.44	
     3.73000	   16.000	 87.19	107.19	
     3.74000	   18.500	 85.00	108.51	
     3.75000	   14.000	 90.36	116.07	
     3.76000	   16.000	 87.19	107.19	
     3.77000	   16.000	 87.19	107.19	
     3.78000	   16.000	 85.94	115.94	
     3.79000	   14.000	 87.50	107.50	
     3.80000	   14.000	 90.36	116.07	
     3.81000	   14.000	 90.36	116.07	
     3.82000	   15.500	 87.26	106.61	
     3.83000	   14.000	 90.36	116.07	
     3.84000	   16.000	 87.19	115.94	
     3.85000	   16.000	 87.19	107.19	
     3.86000	   18.500	 84.73	107.16	
     3.87000	   16.000	 87.19	107.19	
     3.88000	   20.000	 83.75	108.75	
     3.89000	   22.000	 82.05	108.41	
     3.90000	   20.500	 83.78	108.90	
     3.91000	   16.500	 88.33	115.91	
     3.92000	   20.500	 83.78	107.93	
     3.93000	   20.000	 83.75	108.75	
     3.94000	   20.500	 83.78	108.90	
     3.95000	   20.500	 83.78	108.90	
     3.96000	   24.500	 79.08	101.73	
     3.97000	   22.500	 82.11	108.56	
     3.98000	   22.500	 82.11	108.56	
     3.99000	   20.500	 83.78	108.90	
     4.00000	   22.500	 82.11	108.56	
     4.01000	   20.500	 83.78	108.90	
     4.02000	   24.500	 79.08	101.73	
     4.03000	   22.500	 82.11	108.56	
     4.04000	   25.500	 81.86	110.10	
     4.05000	   22.500	 82.11	108.56	
     4.06000	   27.000	 81.30	109.81	
     4.07000	   29.500	 78.90	103.98	
     4.08000	   27.500	 79.18	103.91	
     4.09000	   29.500	 78.90	103.98	
     4.10000	   27.500	 81.36	109.73	
     4.11000	   27.500	 79.18	103.91	
     4.12000	   31.500	 78.02	105.32	
     4.13000	   29.500	 78.90	103.98	
     4.14000	   29.500	 78.90	103.98	
     4.15000	   30.000	 79.00	104.33	
     4.16000	   31.500	 78.02	105.32	
     4.17000	   32.500	 78.38	105.62	
     4.18000	   31.000	 79.52	104.52	
     4.19000	   33.000	 78.64	105.76	
     4.20000	   33.000	 78.64	105.76	
     4.21000	   30.500	 79.26	104.34	
     4.22000	   33.500	 78.58	105.90	
     4.23000	   35.500	 76.69	102.46	
     4.24000	   33.500	 78.58	105.90	
     4.25000	   35.000	 76.71	102.29	
     4.26000	   36.000	 76.53	101.67	
     4.27000	   35.000	 76.71	102.29	
     4.28000	   33.500	 78.58	105.90	
     4.29000	   36.500	 76.51	101.71	
     4.30000	   36.500	 76.51	101.71	
     4.31000	   37.000	 76.62	101.89	
     4.32000	   36.000	 76.67	102.50	
     4.33000	   36.000	 76.67	102.50	
     4.34000	   35.500	 76.69	102.46	
     4.35000	   36.000	 76.67	102.50	
     4.36000	   36.500	 76.64	101.85	
     4.37000	   37.500	 76.87	101.93	
     4.38000	   40.000	 75.13	 98.63	
     4.39000	   37.000	 76.89	102.03	
     4.40000	   38.000	 77.11	102.11	
     4.41000	   39.500	 75.63	 99.43	
     4.42000	   41.000	 73.90	 95.12	
     4.43000	   42.000	 74.05	 94.76	
     4.44000	   40.000	 75.50	 98.75	
     4.45000	   40.000	 75.50	 98.75	
     4.46000	   39.500	 75.63	 99.43	
     4.47000	   41.000	 75.37	 99.15	
     4.48000	   40.000	 75.50	 98.75	
     4.49000	   42.000	 74.05	 94.76	
     4.50000	   43.500	 74.31	 95.34	
     4.51000	   41.000	 75.85	 99.15	
     4.52000	   40.500	 75.62	 98.83	
     4.53000	   42.000	 75.48	 98.57	
     4.54000	   40.500	 75.74	 99.07	
     4.55000	   41.000	 75.61	 99.15	
     4.56000	   41.500	 75.84	 99.46	
     4.57000	   42.000	 75.48	 98.57	
     4.58000	   48.000	 72.50	 91.04	
     4.59000	   45.000	 74.22	 95.00	
     4.60000	   45.500	 73.24	 92.25	
     4.61000	   47.000	 73.83	 94.26	
     4.62000	   46.000	 73.80	 93.48	
     4.63000	   45.000	 74.89	 96.44	
     4.64000	   47.500	 73.32	 92.47	
     4.65000	   44.500	 74.55	 95.79	
     4.66000	   46.500	 73.49	 92.74	
     4.67000	   49.500	 72.58	 90.96	
     4.68000	   48.000	 73.23	 92.60	
     4.69000	   48.500	 73.14	 92.11	
     4.70000	   50.000	 72.50	 91.10	
     4.71000	   50.000	 72.50	 91.10	
     4.72000	   54.500	 71.06	 87.66	
     4.73000	   51.500	 72.48	 89.37	
     4.74000	   53.000	 72.92	 90.38	
     4.75000	   55.000	 71.91	 87.64	
     4.76000	   55.000	 71.91	 87.45	
     4.77000	   51.000	 73.82	 92.55	
     4.78000	   56.000	 72.23	 88.04	
     4.79000	   56.000	 72.23	 88.04	
     4.80000	   56.000	 72.23	 88.04	
     4.81000	   55.500	 71.76	 87.25	
     4.82000	   56.000	 72.23	 88.04	
     4.83000	   59.500	 70.80	 84.66	
     4.84000	   56.000	 72.23	 88.04	
     4.85000	   56.500	 72.08	 87.74	
     4.86000	   56.000	 72.23	 88.04	
     4.87000	   58.500	 70.98	 86.11	
     4.88000	   61.500	 70.85	 85.08	
     4.89000	   62.500	 69.88	 84.36	
     4.90000	   65.000	 69.85	 83.77	
     4.91000	   65.000	 69.85	 83.77	
     4.92000	   67.000	 69.78	 82.54	
     4.93000	   66.500	 70.04	 83.80	
     4.94000	   68.000	 69.63	 82.28	
     4.95000	   68.000	 69.26	 81.76	
     4.96000	   68.000	 69.71	 82.43	
     4.97000	   69.000	 69.71	 82.32	
     4.98000	   67.500	 69.22	 81.59	
     4.99000	   69.000	 69.57	 82.17	
     5.00000	   69.500	 69.53	 81.91	
     5.01000	   68.000	 69.63	 82.35	
     5.02000	   68.500	 69.74	 82.59	
     5.03000	   69.500	 69.53	 81.91	
     5.04000	   69.500	 69.53	 81.91	
     5.05000	   68.500	 69.45	 82.08	
     5.06000	   69.000	 69.71	 82.32	
     5.07000	   69.500	 69.53	 81.91	
     5.08000	   70.000	 69.43	 81.57	
     5.09000	   70.000	 69.71	 82.21	
     5.10000	   69.500	 69.53	 81.91	
     5.11000	   69.500	 69.53	 81.91	
     5.12000	   70.000	 69.71	 82.21	
     5.13000	   69.500	 69.53	 81.91	
     5.14000	   69.500	 69.53	 81.91	
     5.15000	   72.000	 69.24	 81.67	
     5.16000	   70.500	 69.40	 81.81	
     5.17000	   72.500	 68.31	 79.83	
     5.18000	   72.500	 68.31	 80.10	
     5.19000	   71.500	 69.41	 81.92	
     5.20000	   74.000	 68.45	 80.95	
     5.21000	   77.000	 69.16	 81.17	
     5.22000	   75.000	 68.20	 80.20	
     5.23000	   76.000	 70.26	 82.50	
     5.24000	   78.500	 69.65	 81.88	
     5.25000	   79.000	 69.30	 80.89	
     5.26000	   79.500	 69.28	 81.10	
     5.27000	   79.500	 69.40	 81.79	
     5.28000	   80.000	 69.31	 81.25	
     5.29000	   80.000	 69.31	 81.25	
     5.30000	   81.000	 69.32	 81.30	
     5.31000	   81.000	 69.32	 81.30	
     5.32000	   81.000	 69.32	 81.30	
     5.33000	   82.000	 69.45	 81.83	
     5.34000	   81.500	 69.48	 81.56	
     5.35000	   81.500	 69.42	 81.44	
     5.36000	   82.000	 69.39	 81.71	
     5.37000	   83.000	 69.58	 82.23	
     5.38000	   82.500	 69.55	 81.97	
     5.39000	   83.000	 69.40	 81.75	
     5.40000	   83.000	 69.40	 81.75	
     5.41000	   83.000	 69.52	 81.75	
     5.42000	   83.000	 69.40	 81.75	
     5.43000	   84.000	 69.35	 81.55	
     5.44000	   83.000	 69.70	 82.11	
     5.45000	   84.500	 69.56	 81.92	
     5.46000	   83.500	 69.37	 81.41	
     5.47000	   83.500	 69.55	 81.89	
     5.48000	   83.000	 69.40	 81.63	
     5.49000	   84.000	 69.52	 81.67	
     5.50000	   84.000	 69.40	 81.67	
     5.51000	   84.000	 69.58	 82.08	
     5.52000	   83.000	 69.40	 81.63	
     5.53000	   83.500	 69.73	 82.54	
     5.54000	   83.500	 69.55	 81.89	
     5.55000	   83.500	 69.31	 81.29	
     5.56000	   84.000	 69.11	 81.01	
     5.57000	   84.500	 69.62	 81.75	
     5.58000	   84.000	 69.11	 81.01	
     5.59000	   84.000	 69.35	 81.73	
     5.60000	   83.500	 69.37	 81.41	
     5.61000	   83.500	 69.31	 81.29	
     5.62000	   84.500	 69.02	 80.74	
     5.63000	   84.000	 69.11	 81.01	
     5.64000	   84.500	 69.08	 80.80	
     5.65000	   84.500	 69.08	 81.15	
     5.66000	   85.000	 69.12	 81.41	
     5.67000	   84.500	 69.08	 81.33	
     5.68000	   85.000	 69.41	 81.35	
     5.69000	   86.000	 69.36	 81.69	
     5.70000	   85.500	 69.33	 81.08	
     5.71000	   86.000	 69.07	 80.99	
     5.72000	   85.500	 69.39	 81.67	
     5.73000	   86.500	 69.16	 81.13	
     5.74000	   86.500	 69.22	 81.30	
     5.75000	   86.000	 69.24	 81.51	
     5.76000	   87.500	 69.23	 81.74	
     5.77000	   87.500	 68.77	 80.31	
     5.78000	   88.500	 69.07	 81.21	
     5.79000	   86.500	 69.16	 81.18	
     5.80000	   89.500	 69.13	 81.03	
     5.81000	   89.500	 69.25	 81.42	
     5.82000	   90.500	 69.14	 81.35	
     5.83000	   91.000	 69.34	 81.70	
     5.84000	   91.500	 69.59	 81.89	
     5.85000	   92.500	 69.43	 81.70	
     5.86000	   92.500	 69.22	 81.27	
     5.87000	   92.500	 69.32	 81.86	
     5.88000	   93.000	 69.19	 81.61	
     5.89000	   93.000	 69.52	 81.94	
     5.90000	   95.000	 69.00	 81.11	
     5.91000	   96.500	 68.99	 82.10	
     5.92000	   97.000	 68.81	 81.86	
     5.93000	   98.000	 68.88	 81.79	
     5.94000	   96.500	 69.09	 81.17	
     5.95000	   95.000	 69.37	 81.79	
     5.96000	   97.000	 69.23	 81.34	
     5.97000	   98.500	 69.11	 82.06	
     5.98000	   99.000	 68.99	 82.22	
     5.99000	  100.000	 69.05	 82.15	
     6.00000	  100.000	 69.40	 81.60	
     6.01000	  102.500	 69.05	 81.83	
     6.02000	  100.500	 69.38	 81.42	
     6.03000	  103.500	 69.40	 81.57	
     6.04000	  104.500	 69.21	 82.13	
     6.05000	  106.000	 69.34	 82.50	
     6.06000	  106.500	 69.13	 82.00	
     6.07000	  107.500	 69.09	 82.02	
     6.08000	  106.500	 69.13	 82.04	
     6.09000	  108.500	 69.01	 81.96	
     6.10000	  109.000	 69.08	 82.11	
     6.11000	  109.500	 68.97	 81.99	
     6.12000	  110.500	 69.03	 81.97	
     6.13000	  110.500	 69.07	 82.01	
     6.14000	  111.000	 69.01	 81.80	
     6.15000	  111.000	 69.14	 82.16	
     6.16000	  116.500	 68.61	 81.44	
     6.17000	  113.500	 69.10	 81.61	
     6.18000	  116.500	 68.52	 80.49	
     6.19000	  117.000	 69.02	 80.85	
     6.20000	  117.000	 69.02	 80.94	
     6.21000	  117.000	 69.40	 82.05	
     6.22000	  118.000	 69.58	 82.25	
     6.23000	  119.000	 69.54	 82.23	
     6.24000	  122.500	 68.80	 80.27	
     6.25000	  124.500	 68.49	 80.46	
     6.26000	  123.500	 69.45	 81.23	
     6.27000	  128.000	 69.06	 80.98	
     6.28000	  127.000	 69.21	 80.28	
     6.29000	  128.000	 69.14	 80.08	
     6.30000	  129.000	 69.30	 80.35	
     6.31000	  129.500	 69.36	 80.48	
     6.32000	  129.000	 69.30	 80.35	
     6.33000	  132.500	 69.23	 81.26	
     6.34000	  133.500	 69.04	 80.77	
     6.35000	  133.500	 69.19	 80.13	
     6.36000	  136.000	 69.08	 80.81	
     6.37000	  137.000	 68.94	 80.51	
     6.38000	  137.500	 68.89	 80.38	
     6.39000	  139.000	 68.85	 80.07	
     6.40000	  141.500	 68.99	 80.51	
     6.41000	  143.000	 69.06	 80.66	
     6.42000	  143.000	 69.06	 80.66	
     6.43000	  143.500	 69.08	 80.78	
     6.44000	  148.500	 69.38	 81.63	
     6.45000	  149.500	 69.38	 81.56	
     6.46000	  147.000	 69.15	 80.78	
     6.47000	  148.500	 69.51	 81.43	
     6.48000	  152.500	 69.23	 81.20	
     6.49000	  155.000	 69.03	 80.35	
     6.50000	  155.500	 69.18	 80.88	
     6.51000	  159.000	 68.99	 80.25	
     6.52000	  161.000	 68.85	 79.81	
     6.53000	  159.500	 69.08	 80.67	
     6.54000	  159.500	 68.95	 80.27	
     6.55000	  163.500	 68.73	 79.07	
     6.56000	  164.500	 68.74	 79.19	
     6.57000	  165.500	 68.63	 79.17	
     6.58000	  166.000	 68.58	 78.80	
     6.59000	  166.500	 68.63	 78.90	
     6.60000	  168.500	 68.68	 79.07	
     6.61000	  168.500	 68.71	 79.18	
     6.62000	  170.000	 68.82	 79.21	
     6.63000	  171.000	 68.80	 78.95	
     6.64000	  169.500	 68.75	 79.07	
     6.65000	  173.500	 68.69	 79.09	
     6.66000	  173.500	 68.72	 79.01	
     6.67000	  175.500	 68.65	 78.90	
     6.68000	  176.000	 68.27	 78.18	
     6.69000	  175.500	 68.65	 78.90	
     6.70000	  178.000	 69.10	 79.55	
     6.71000	  178.000	 69.10	 79.55	
     6.72000	  178.500	 69.17	 79.59	
     6.73000	  181.500	 68.69	 78.50	
     6.74000	  178.500	 69.15	 79.62	
     6.75000	  181.500	 69.24	 79.55	
     6.76000	  181.000	 69.12	 79.39	
     6.77000	  180.000	 68.97	 79.25	
     6.78000	  183.500	 68.57	 78.46	
     6.79000	  180.500	 68.93	 79.07	
     6.80000	  183.000	 68.50	 78.36	
     6.81000	  182.500	 68.86	 78.84	
     6.82000	  184.000	 68.67	 78.59	
     6.83000	  181.500	 68.61	 78.44	
     6.84000	  185.000	 68.62	 78.32	
     6.85000	  182.500	 68.10	 77.52	
     6.86000	  183.000	 68.99	 79.18	
     6.87000	  181.000	 68.48	 78.67	
     6.88000	  180.500	 68.43	 78.27	
     6.89000	  188.500	 68.71	 78.26	
     6.90000	  186.000	 68.12	 77.26	
     6.91000	  190.500	 68.15	 77.52	
     6.92000	  188.500	 68.21	 77.33	
     6.93000	  190.500	 68.10	 77.28	
     6.94000	  189.000	 68.47	 77.99	
     6.95000	  194.500	 68.29	 77.60	
     6.96000	  193.500	 68.07	 77.38	
     6.97000	  197.500	 68.39	 77.63	
     6.98000	  197.500	 68.42	 77.61	
     6.99000	  197.500	 68.01	 76.72	
     7.00000	  198.500	 67.95	 77.02	
     7.01000	  198.000	 67.88	 76.87	
     7.02000	  202.000	 68.22	 77.18	
     7.03000	  202.500	 68.16	 77.17	
     7.04000	  203.000	 68.23	 77.27	
     7.05000	  204.500	 68.20	 77.15	
     7.06000	  203.500	 67.56	 76.25	
     7.07000	  207.000	 67.68	 76.55	
     7.08000	  209.000	 67.85	 76.75	
     7.09000	  212.000	 67.97	 76.63	
     7.10000	  213.500	 67.81	 76.41	
     7.11000	  213.000	 67.84	 76.34	
     7.12000	  216.500	 67.93	 76.69	
     7.13000	  215.000	 67.67	 76.05	
     7.14000	  217.000	 67.76	 76.15	
     7.15000	  219.500	 67.80	 76.28	
     7.16000	  223.500	 68.09	 76.99	
     7.17000	  229.000	 68.36	 77.18	
     7.18000	  239.000	 68.74	 78.10	
     7.19000	  254.000	 69.39	 79.06	
     7.20000	  277.000	 69.62	 80.05	
     7.21000	  307.500	 69.80	 80.72	
     7.22000	  343.000	 69.64	 80.50	
     7.23000	  378.500	 69.54	 79.29	
     7.24000	  413.500	 69.24	 78.66	
     7.25000	  445.500	 69.04	 78.43	
     7.26000	  470.000	 68.95	 77.87	
     7.27000	  493.500	 68.90	 77.59	
     7.28000	  505.000	 68.98	 77.39	
     7.29000	  509.000	 68.89	 77.09	
     7.30000	  509.000	 68.84	 77.09	
     7.31000	  504.500	 68.90	 77.05	
     7.32000	  503.000	 68.82	 77.14	
     7.33000	  496.500	 68.68	 77.18	
     7.34000	  482.000	 68.54	 76.93	
     7.35000	  466.000	 68.43	 76.87	
     7.36000	  452.000	 68.53	 77.22	
     7.37000	  439.000	 68.46	 77.32	
     7.38000	  432.500	 68.47	 77.45	
     7.39000	  430.000	 68.38	 77.43	
     7.40000	  423.000	 68.26	 77.14	
     7.41000	  421.000	 68.04	 76.94	
     7.42000	  414.500	 68.18	 77.00	
     7.43000	  409.500	 68.33	 76.83	
     7.44000	  407.000	 68.45	 77.05	
     7.45000	  403.500	 68.36	 77.59	
     7.46000	  403.500	 68.35	 77.68	
     7.47000	  400.500	 68.52	 77.58	
     7.48000	  400.500	 68.26	 77.51	
     7.49000	  398.000	 68.47	 77.16	
     7.50000	  400.000	 68.55	 77.34	
     7.51000	  396.000	 68.69	 77.84	
     7.52000	  391.500	 68.72	 77.87	
     7.53000	  382.500	 69.10	 78.07	
     7.54000	  378.500	 69.11	 78.10	
     7.55000	  375.000	 69.21	 78.29	
     7.56000	  370.500	 69.24	 78.48	
     7.57000	  364.500	 69.42	 78.61	
     7.58000	  360.500	 69.23	 78.58	
     7.59000	  353.500	 69.38	 78.31	
     7.60000	  346.500	 69.65	 78.90	
     7.61000	  341.500	 69.70	 78.76	
     7.62000	  337.000	 69.70	 78.83	
     7.63000	  332.500	 69.72	 78.98	
     7.64000	  328.500	 69.78	 79.03	
     7.65000	  322.500	 69.71	 78.89	
     7.66000	  321.500	 69.77	 78.97	
     7.67000	  317.500	 69.76	 78.89	
     7.68000	  312.500	 69.80	 78.65	
     7.69000	  310.500	 69.69	 78.83	
     7.70000	  308.000	 69.58	 78.67	
     7.71000	  299.000	 69.87	 78.83	
     7.72000	  296.500	 69.79	 78.27	
     7.73000	  295.500	 69.70	 78.89	
     7.74000	  290.000	 69.90	 78.41	
     7.75000	  285.000	 70.23	 78.89	
     7.76000	  281.500	 70.04	 78.84	
     7.77000	  279.500	 70.30	 78.95	
     7.78000	  276.500	 70.21	 78.85	
     7.79000	  273.500	 69.99	 78.51	
     7.80000	  271.500	 69.97	 78.33	
     7.81000	  268.000	 69.98	 78.53	
     7.82000	  265.000	 70.17	 78.77	
     7.83000	  263.000	 70.15	 78.78	
     7.84000	  261.000	 70.17	 78.74	
     7.85000	  257.000	 69.98	 78.39	
     7.86000	  252.000	 70.14	 78.69	
     7.87000	  245.000	 70.27	 78.76	
     7.88000	  243.000	 70.43	 78.93	
     7.89000	  238.500	 70.45	 79.09	
     7.90000	  234.500	 70.31	 78.84	
     7.91000	  226.000	 70.04	 78.92	
     7.92000	  219.000	 69.77	 78.15	
     7.93000	  214.500	 69.66	 78.01	
     7.94000	  209.000	 69.62	 77.92	
     7.95000	  199.000	 69.55	 78.49	
     7.96000	  195.000	 69.49	 78.23	
     7.97000	  186.500	 69.48	 78.43	
     7.98000	  176.500	 69.53	 77.83	
     7.99000	  165.500	 69.71	 78.56	
     8.00000	  159.000	 69.69	 78.84	
     8.01000	  147.000	 68.88	 78.23	
     8.02000	  139.500	 68.66	 77.94	
     8.03000	  128.500	 69.01	 78.07	
     8.04000	  120.000	 68.33	 77.33	
     8.05000	  111.000	 68.02	 77.25	
     8.06000	   97.500	 68.38	 77.72	
     8.07000	   85.500	 68.74	 79.68	
     8.08000	   73.500	 68.27	 79.22	
     8.09000	   66.500	 68.31	 79.44	
     8.10000	   60.000	 68.00	 79.00	
     8.11000	   50.000	 69.70	 81.90	
     8.12000	   41.500	 70.30	 83.55	
     8.13000	   23.500	 72.87	 90.32	
     8.14000	   19.500	 73.21	 94.49	
     8.15000	   14.000	 70.71	 87.86	
     8.16000	    4.000	 70.00	 75.00	
     8.17000	    2.000	 95.00	125.00	
     8.18000	    0.000	  0.00	  0.00	
     8.19000	    0.000	  0.00	  0.00	
     8.20000	    0.000	  0.00	  0.00	
     8.21000	    2.000	 25.00	115.00	
     8.22000	    2.000	 25.00	115.00	
     8.23000	    2.000	 25.00	115.00	
     8.24000	    2.000	 25.00	115.00	
     8.25000	    2.000	 25.00	115.00	
     8.26000	    2.000	 25.00	115.00	
     8.27000	    0.000	  0.00	  0.00	
     8.28000	    0.000	  0.00	  0.00	
     8.29000	    0.000	  0.00	  0.00	
     8.30000	    0.000	  0.00	  0.00	
     8.31000	    0.000	  0.00	  0.00	
     8.32000	    0.000	  0.00	  0.00	
     8.33000	    0.000	  0.00	  0.00	
     8.34000	    0.000	  0.00	  0.00	
     8.35000	    0.000	  0.00	  0.00	
     8.36000	    0.000	  0.00	  0.00	
     8.37000	    0.000	  0.00	  0.00	
     8.38000	    0.000	  0.00	  0.00	
     8.39000	    0.000	  0.00	  0.00	
     8.40000	    0.000	  0.00	  0.00	
     8.41000	    0.000	  0.00	  0.00	
     8.42000	    0.000	  0.00	  0.00	
     8.43000	    0.000	  0.00	  0.00	
     8.44000	    0.000	  0.00	  0.00	
     8.45000	    0.000	  0.00	  0.00	
     8.46000	    0.000	  0.00	  0.00	
     8.47000	    0.000	  0.00	  0.00	
     8.48000	    0.000	  0.00	  0.00	
     8.49000	    0.000	  0.00	  0.00	
     8.50000	    0.000	  0.00	  0.00	
     8.51000	    0.000	  0.00	  0.00	
     8.52000	    0.000	  0.00	  0.00	
     8.53000	    0.000	  0.00	  0.00	
     8.54000	    0.000	  0.00	  0.00	
     8.55000	    0.000	  0.00	  0.00	
     8.56000	    0.000	  0.00	  0.00	
     8.57000	    0.000	  0.00	  0.00	
     8.58000	    0.000	  0.00	  0.00	
     8.59000	    0.000	  0.00	  0.00	
     8.60000	    0.000	  0.00	  0.00	
     8.61000	    0.000	  0.00	  0.00	
     8.62000	    0.000	  0.00	  0.00	
     8.63000	    0.000	  0.00	  0.00	
     8.64000	    0.000	  0.00	  0.00	
     8.65000	    0.000	  0.00	  0.00	
     8.66000	    0.000	  0.00	  0.00	
     8.67000	    0.000	  0.00	  0.00	
     8.68000	    0.000	  0.00	  0.00	
     8.69000	    0.000	  0.00	  0.00	
     8.70000	    0.000	  0.00	  0.00	
     8.71000	    0.000	  0.00	  0.00	
     8.72000	    0.000	  0.00	  0.00	
     8.73000	    0.000	  0.00	  0.00	
     8.74000	    0.000	  0.00	  0.00	
     8.75000	    0.000	  0.00	  0.00	
     8.76000	    0.000	  0.00	  0.00	
     8.77000	    0.000	  0.00	  0.00	
     8.78000	    0.000	  0.00	  0.00	
     8.79000	    0.000	  0.00	  0.00	
     8.80000	    0.000	  0.00	  0.00	
     8.81000	    0.000	  0.00	  0.00	
     8.82000	    0.000	  0.00	  0.00	
     8.83000	    0.000	  0.00	  0.00	
     8.84000	    0.000	  0.00	  0.00	
     8.85000	    0.000	  0.00	  0.00	
     8.86000	    0.000	  0.00	  0.00	
     8.87000	    0.000	  0.00	  0.00	
     8.88000	    0.000	  0.00	  0.00	
     8.89000	    0.000	  0.00	  0.00	
     8.90000	    0.000	  0.00	  0.00	
     8.91000	    0.000	  0.00	  0.00	
     8.92000	    0.000	  0.00	  0.00	
     8.93000	    0.000	  0.00	  0.00	
     8.94000	    0.000	  0.00	  0.00	
     8.95000	    0.000	  0.00	  0.00	
     8.96000	    0.000	  0.00	  0.00	
     8.97000	    0.000	  0.00	  0.00	
     8.98000	    0.000	  0.00	  0.00	
     8.99000	    0.000	  0.00	  0.00	
     9.00000	    0.000	  0.00	  0.00	
     9.01000	    0.000	  0.00	  0.00	
     9.02000	    0.000	  0.00	  0.00	
     9.03000	    0.000	  0.00	  0.00	
     9.04000	    0.000	  0.00	  0.00	
     9.05000	    0.000	  0.00	  0.00	
     9.06000	    0.000	  0.00	  0.00	
     9.07000	    0.000	  0.00	  0.00	
     9.08000	    0.000	  0.00	  0.00	
     9.09000	    0.000	  0.00	  0.00	
     9.10000	    0.000	  0.00	  0.00	
     9.11000	    0.000	  0.00	  0.00	
     9.12000	    0.000	  0.00	  0.00	
     9.13000	    0.000	  0.00	  0.00	
     9.14000	    0.000	  0.00	  0.00	
     9.15000	    0.000	  0.00	  0.00	
     9.16000	    0.000	  0.00	  0.00	
     9.17000	    0.000	  0.00	  0.00	
     9.18000	    0.000	  0.00	  0.00	
     9.19000	    0.000	  0.00	  0.00	
     9.20000	    0.000	  0.00	  0.00	
     9.21000	    0.000	  0.00	  0.00	
     9.22000	    0.000	  0.00	  0.00	
     9.23000	    0.000	  0.00	  0.00	
     9.24000	    0.000	  0.00	  0.00	
     9.25000	    0.000	  0.00	  0.00	
     9.26000	    0.000	  0.00	  0.00	
     9.27000	    0.000	  0.00	  0.00	
     9.28000	    0.000	  0.00	  0.00	
     9.29000	    0.000	  0.00	  0.00	
     9.30000	    0.000	  0.00	  0.00	
     9.31000	    0.000	  0.00	  0.00	
     9.32000	    0.000	  0.00	  0.00	
     9.33000	    0.000	  0.00	  0.00	
     9.34000	    0.000	  0.00	  0.00	
     9.35000	    0.000	  0.00	  0.00	
     9.36000	    0.000	  0.00	  0.00	
     9.37000	    0.000	  0.00	  0.00	
     9.38000	    0.000	  0.00	  0.00	
     9.39000	    0.000	  0.00	  0.00	
     9.40000	    0.000	  0.00	  0.00	
     9.41000	    0.000	  0.00	  0.00	
     9.42000	    0.000	  0.00	  0.00	
     9.43000	    0.000	  0.00	  0.00	
     9.44000	    0.000	  0.00	  0.00	
     9.45000	    0.000	  0.00	  0.00	
     9.46000	    0.000	  0.00	  0.00	
     9.47000	    0.000	  0.00	  0.00	
